Channel			  :,CH2
Frequency			  :,F=1.886MHz
Period 			  :,T=  ?
PK-PK				  :,Vpp=5.680V
Average			  :,V=3.598V
Vertical pos		  :,-4000.00mV
Probe attenuation	  :,10X
Voltage per ADC value:,80.00mV
Time interval		  :,0.08uS

index,CH2_Voltage(mV)
0,4800.00
1,4800.00
2,4800.00
3,4800.00
4,4800.00
5,4800.00
6,4800.00
7,4800.00
8,4880.00
9,4800.00
10,4720.00
11,4800.00
12,4720.00
13,4800.00
14,4720.00
15,4800.00
16,4800.00
17,4800.00
18,4720.00
19,4880.00
20,4720.00
21,4880.00
22,4800.00
23,4720.00
24,4720.00
25,4800.00
26,4800.00
27,4800.00
28,4880.00
29,4720.00
30,4800.00
31,4800.00
32,4800.00
33,4880.00
34,4720.00
35,4800.00
36,4800.00
37,4800.00
38,4800.00
39,4880.00
40,4880.00
41,4800.00
42,4880.00
43,4720.00
44,4800.00
45,4800.00
46,4800.00
47,4800.00
48,4880.00
49,4880.00
50,4800.00
51,4880.00
52,4800.00
53,4880.00
54,4800.00
55,4880.00
56,4880.00
57,4880.00
58,4800.00
59,4880.00
60,4800.00
61,4880.00
62,4800.00
63,4800.00
64,4800.00
65,4800.00
66,4720.00
67,4720.00
68,4800.00
69,4880.00
70,4720.00
71,4720.00
72,4800.00
73,4880.00
74,4720.00
75,4720.00
76,4800.00
77,4720.00
78,4800.00
79,4720.00
80,4800.00
81,4800.00
82,4800.00
83,4880.00
84,4720.00
85,4800.00
86,4800.00
87,4800.00
88,4800.00
89,4800.00
90,4880.00
91,4800.00
92,4800.00
93,4880.00
94,4800.00
95,4800.00
96,4800.00
97,4800.00
98,4800.00
99,4880.00
100,4800.00
101,4720.00
102,4800.00
103,4800.00
104,4880.00
105,4880.00
106,4720.00
107,4880.00
108,4800.00
109,4880.00
110,4880.00
111,4800.00
112,4880.00
113,4880.00
114,4880.00
115,4800.00
116,4800.00
117,4880.00
118,4800.00
119,4800.00
120,4720.00
121,4720.00
122,4800.00
123,4720.00
124,4720.00
125,4800.00
126,4800.00
127,4800.00
128,4800.00
129,4720.00
130,4800.00
131,4720.00
132,4800.00
133,4800.00
134,4800.00
135,4880.00
136,4800.00
137,4800.00
138,4880.00
139,4800.00
140,4880.00
141,4800.00
142,4800.00
143,4800.00
144,4800.00
145,4800.00
146,4800.00
147,4800.00
148,4800.00
149,4880.00
150,4800.00
151,4720.00
152,4800.00
153,4800.00
154,4720.00
155,4800.00
156,4800.00
157,4800.00
158,4800.00
159,4880.00
160,4800.00
161,4880.00
162,4800.00
163,4800.00
164,4800.00
165,4720.00
166,4800.00
167,4800.00
168,4800.00
169,4800.00
170,4800.00
171,4720.00
172,4800.00
173,4800.00
174,4800.00
175,4800.00
176,4880.00
177,4800.00
178,4800.00
179,4800.00
180,4800.00
181,4800.00
182,4800.00
183,4800.00
184,4800.00
185,4800.00
186,4800.00
187,4880.00
188,4800.00
189,4800.00
190,4800.00
191,4880.00
192,4720.00
193,4800.00
194,4800.00
195,4800.00
196,4800.00
197,4800.00
198,4880.00
199,4800.00
200,4800.00
201,4880.00
202,4800.00
203,4800.00
204,4800.00
205,4880.00
206,4800.00
207,4800.00
208,4800.00
209,4880.00
210,4880.00
211,4720.00
212,4800.00
213,4800.00
214,4800.00
215,4800.00
216,4880.00
217,4880.00
218,4800.00
219,4720.00
220,4720.00
221,4640.00
222,4800.00
223,4720.00
224,4800.00
225,4800.00
226,4800.00
227,4800.00
228,4720.00
229,4800.00
230,4800.00
231,4880.00
232,4800.00
233,4800.00
234,4880.00
235,4720.00
236,4800.00
237,4800.00
238,4800.00
239,4800.00
240,4720.00
241,4720.00
242,4800.00
243,4720.00
244,4800.00
245,4800.00
246,4800.00
247,4800.00
248,4800.00
249,4800.00
250,4880.00
251,4800.00
252,4800.00
253,4800.00
254,4800.00
255,4800.00
256,4800.00
257,4800.00
258,4800.00
259,4800.00
260,4720.00
261,4880.00
262,4880.00
263,4800.00
264,4800.00
265,4800.00
266,4880.00
267,4800.00
268,4800.00
269,4800.00
270,4800.00
271,4800.00
272,4880.00
273,4880.00
274,4800.00
275,4800.00
276,4800.00
277,4800.00
278,4720.00
279,4800.00
280,4800.00
281,4800.00
282,4800.00
283,4800.00
284,4800.00
285,4800.00
286,4800.00
287,4720.00
288,4800.00
289,4800.00
290,4800.00
291,4800.00
292,4720.00
293,4800.00
294,4880.00
295,4800.00
296,4800.00
297,4880.00
298,4800.00
299,4800.00
300,4800.00
301,4800.00
302,4800.00
303,4800.00
304,4800.00
305,4800.00
306,4800.00
307,4800.00
308,4800.00
309,4720.00
310,4800.00
311,4800.00
312,4880.00
313,4800.00
314,4800.00
315,4800.00
316,4880.00
317,4880.00
318,4880.00
319,4800.00
320,4880.00
321,4800.00
322,4800.00
323,4800.00
324,4800.00
325,4800.00
326,4800.00
327,4880.00
328,4800.00
329,4720.00
330,4880.00
331,4800.00
332,4880.00
333,4720.00
334,4720.00
335,4800.00
336,4800.00
337,4800.00
338,4800.00
339,4720.00
340,4960.00
341,4800.00
342,4720.00
343,4800.00
344,4880.00
345,4800.00
346,4800.00
347,4800.00
348,4800.00
349,4880.00
350,4720.00
351,4800.00
352,4720.00
353,4720.00
354,4800.00
355,4880.00
356,4800.00
357,4880.00
358,4720.00
359,4800.00
360,4800.00
361,4800.00
362,4800.00
363,4880.00
364,160.00
365,0.00
366,0.00
367,0.00
368,0.00
369,80.00
370,160.00
371,0.00
372,0.00
373,160.00
374,0.00
375,80.00
376,4080.00
377,4800.00
378,4800.00
379,4880.00
380,4880.00
381,4800.00
382,4960.00
383,4800.00
384,4800.00
385,4800.00
386,4880.00
387,4800.00
388,4800.00
389,4800.00
390,4800.00
391,4720.00
392,4720.00
393,4720.00
394,4880.00
395,4800.00
396,4800.00
397,4800.00
398,4800.00
399,4800.00
400,4800.00
401,4800.00
402,4720.00
403,4800.00
404,4800.00
405,4800.00
406,4880.00
407,4800.00
408,4720.00
409,4800.00
410,4880.00
411,4800.00
412,4800.00
413,4880.00
414,4880.00
415,4800.00
416,4880.00
417,4800.00
418,4800.00
419,4800.00
420,4720.00
421,4720.00
422,4800.00
423,4880.00
424,4720.00
425,4720.00
426,4800.00
427,0.00
428,80.00
429,80.00
430,0.00
431,0.00
432,0.00
433,0.00
434,0.00
435,0.00
436,0.00
437,160.00
438,160.00
439,4720.00
440,4800.00
441,4800.00
442,4880.00
443,4800.00
444,4880.00
445,4800.00
446,4720.00
447,4720.00
448,4800.00
449,4880.00
450,4800.00
451,4880.00
452,4880.00
453,4880.00
454,4880.00
455,4800.00
456,4800.00
457,4880.00
458,4880.00
459,4800.00
460,4800.00
461,4800.00
462,4800.00
463,4800.00
464,4720.00
465,4880.00
466,4880.00
467,4800.00
468,4800.00
469,4800.00
470,4880.00
471,4800.00
472,4800.00
473,4800.00
474,4800.00
475,4800.00
476,4800.00
477,4720.00
478,4800.00
479,4720.00
480,4800.00
481,4800.00
482,4880.00
483,4800.00
484,4800.00
485,4880.00
486,4800.00
487,4800.00
488,4800.00
489,4800.00
490,4800.00
491,4800.00
492,4880.00
493,4880.00
494,4800.00
495,4800.00
496,4800.00
497,4800.00
498,4800.00
499,4880.00
500,4800.00
501,4800.00
502,4880.00
503,4800.00
504,4800.00
505,4800.00
506,4720.00
507,4800.00
508,4800.00
509,4800.00
510,4800.00
511,4880.00
512,4800.00
513,4800.00
514,4800.00
515,4800.00
516,4880.00
517,4800.00
518,4800.00
519,4720.00
520,4800.00
521,4800.00
522,4800.00
523,4800.00
524,4800.00
525,4800.00
526,4800.00
527,4800.00
528,4880.00
529,4800.00
530,4720.00
531,4800.00
532,4880.00
533,4880.00
534,4720.00
535,4720.00
536,4800.00
537,4880.00
538,4800.00
539,4880.00
540,4880.00
541,320.00
542,0.00
543,0.00
544,0.00
545,0.00
546,0.00
547,80.00
548,80.00
549,0.00
550,160.00
551,0.00
552,80.00
553,4160.00
554,4800.00
555,4880.00
556,4880.00
557,4880.00
558,4880.00
559,4800.00
560,4800.00
561,4880.00
562,4800.00
563,4880.00
564,4800.00
565,4880.00
566,4800.00
567,4800.00
568,4880.00
569,4800.00
570,4800.00
571,4720.00
572,4800.00
573,4720.00
574,4880.00
575,4800.00
576,4800.00
577,4800.00
578,4800.00
579,0.00
580,0.00
581,0.00
582,80.00
583,0.00
584,80.00
585,80.00
586,160.00
587,0.00
588,80.00
589,80.00
590,80.00
591,4400.00
592,4800.00
593,4800.00
594,4800.00
595,4800.00
596,4880.00
597,4880.00
598,4800.00
599,4880.00
600,4880.00
601,4800.00
602,4800.00
603,4800.00
604,4880.00
605,4800.00
606,4800.00
607,4800.00
608,4800.00
609,4800.00
610,4720.00
611,4800.00
612,4880.00
613,4800.00
614,4800.00
615,4800.00
616,4720.00
617,4800.00
618,4800.00
619,4800.00
620,4720.00
621,4720.00
622,4720.00
623,4800.00
624,4800.00
625,4800.00
626,4720.00
627,4800.00
628,4800.00
629,4800.00
630,4720.00
631,4800.00
632,4800.00
633,4800.00
634,4720.00
635,4800.00
636,4800.00
637,4800.00
638,4800.00
639,4800.00
640,4880.00
641,4800.00
642,4720.00
643,4880.00
644,4720.00
645,4720.00
646,4800.00
647,4800.00
648,4800.00
649,4800.00
650,4800.00
651,4800.00
652,4800.00
653,4800.00
654,4800.00
655,4880.00
656,80.00
657,0.00
658,0.00
659,160.00
660,80.00
661,160.00
662,80.00
663,80.00
664,240.00
665,80.00
666,80.00
667,80.00
668,4720.00
669,4880.00
670,4800.00
671,4800.00
672,4800.00
673,4880.00
674,4800.00
675,4800.00
676,4800.00
677,4800.00
678,4800.00
679,4880.00
680,4800.00
681,4720.00
682,4800.00
683,4880.00
684,4800.00
685,4800.00
686,4880.00
687,4880.00
688,4880.00
689,4800.00
690,4800.00
691,4800.00
692,4800.00
693,4880.00
694,4880.00
695,4800.00
696,4800.00
697,4880.00
698,4800.00
699,4800.00
700,4800.00
701,4880.00
702,4880.00
703,4800.00
704,4800.00
705,4800.00
706,4880.00
707,4800.00
708,4800.00
709,4880.00
710,4880.00
711,4800.00
712,4800.00
713,4800.00
714,4800.00
715,4800.00
716,4800.00
717,4640.00
718,4800.00
719,4720.00
720,4720.00
721,4720.00
722,4880.00
723,4800.00
724,4720.00
725,4720.00
726,4880.00
727,4880.00
728,4800.00
729,4880.00
730,4720.00
731,4800.00
732,4800.00
733,4800.00
734,4880.00
735,4800.00
736,4720.00
737,4720.00
738,4800.00
739,4880.00
740,4880.00
741,4800.00
742,4880.00
743,4800.00
744,4800.00
745,4800.00
746,4880.00
747,4880.00
748,4800.00
749,4880.00
750,4800.00
751,4800.00
752,4880.00
753,4800.00
754,4800.00
755,4800.00
756,4800.00
757,4800.00
758,4800.00
759,4720.00
760,4800.00
761,4880.00
762,4800.00
763,4800.00
764,4720.00
765,4800.00
766,4720.00
767,4720.00
768,4720.00
769,4720.00
770,4800.00
771,4720.00
772,4800.00
773,4800.00
774,4800.00
775,4800.00
776,4720.00
777,4800.00
778,4800.00
779,4880.00
780,4800.00
781,4800.00
782,4800.00
783,-80.00
784,0.00
785,0.00
786,0.00
787,160.00
788,0.00
789,80.00
790,80.00
791,80.00
792,80.00
793,160.00
794,160.00
795,4800.00
796,4880.00
797,4880.00
798,4880.00
799,4800.00
800,4800.00
801,4800.00
802,4800.00
803,4880.00
804,4800.00
805,4800.00
806,4800.00
807,4800.00
808,4800.00
809,4880.00
810,4800.00
811,4800.00
812,4800.00
813,4800.00
814,4800.00
815,4720.00
816,4800.00
817,4800.00
818,4800.00
819,4720.00
820,4800.00
821,4800.00
822,4880.00
823,-720.00
824,0.00
825,0.00
826,0.00
827,0.00
828,0.00
829,160.00
830,80.00
831,0.00
832,80.00
833,80.00
834,160.00
835,3680.00
836,4880.00
837,4880.00
838,4800.00
839,4800.00
840,4880.00
841,4800.00
842,4800.00
843,4880.00
844,4800.00
845,4880.00
846,4880.00
847,4880.00
848,4880.00
849,4880.00
850,4800.00
851,4800.00
852,4800.00
853,4800.00
854,4800.00
855,4880.00
856,4800.00
857,4720.00
858,4800.00
859,4880.00
860,4800.00
861,4880.00
862,4800.00
863,4800.00
864,4800.00
865,4800.00
866,4800.00
867,4800.00
868,4800.00
869,4800.00
870,4800.00
871,4800.00
872,4800.00
873,4800.00
874,4720.00
875,4880.00
876,4880.00
877,4800.00
878,4800.00
879,4880.00
880,4800.00
881,4800.00
882,4880.00
883,4880.00
884,4800.00
885,4800.00
886,4800.00
887,4800.00
888,4800.00
889,4880.00
890,4800.00
891,4880.00
892,4800.00
893,4800.00
894,4880.00
895,4800.00
896,4800.00
897,4800.00
898,4800.00
899,4800.00
900,4880.00
901,4800.00
902,4800.00
903,4800.00
904,4800.00
905,4880.00
906,4800.00
907,4720.00
908,4800.00
909,4880.00
910,4880.00
911,4800.00
912,4800.00
913,4800.00
914,4800.00
915,4800.00
916,4800.00
917,4800.00
918,4800.00
919,4800.00
920,4880.00
921,4720.00
922,4800.00
923,4800.00
924,4720.00
925,4720.00
926,4800.00
927,4720.00
928,4720.00
929,4640.00
930,4800.00
931,4800.00
932,4800.00
933,4720.00
934,4800.00
935,4880.00
936,4800.00
937,4800.00
938,4800.00
939,4800.00
940,4880.00
941,4720.00
942,4800.00
943,4720.00
944,4720.00
945,4720.00
946,4880.00
947,4800.00
948,4720.00
949,4880.00
950,4800.00
951,4800.00
952,4800.00
953,4800.00
954,4720.00
955,4720.00
956,4720.00
957,4880.00
958,4800.00
959,4880.00
960,4800.00
961,4720.00
962,4800.00
963,4800.00
964,480.00
965,0.00
966,0.00
967,80.00
968,80.00
969,0.00
970,0.00
971,80.00
972,0.00
973,0.00
974,160.00
975,0.00
976,3440.00
977,4720.00
978,4800.00
979,4800.00
980,4800.00
981,4800.00
982,4880.00
983,4880.00
984,4720.00
985,4880.00
986,4800.00
987,4880.00
988,4800.00
989,4800.00
990,4800.00
991,4720.00
992,4720.00
993,4800.00
994,4800.00
995,4800.00
996,4800.00
997,4720.00
998,4800.00
999,4880.00
1000,4800.00
1001,4800.00
1002,4880.00
1003,4800.00
1004,4800.00
1005,4880.00
1006,4800.00
1007,4800.00
1008,4800.00
1009,4800.00
1010,4720.00
1011,4800.00
1012,0.00
1013,0.00
1014,0.00
1015,0.00
1016,160.00
1017,240.00
1018,80.00
1019,80.00
1020,0.00
1021,80.00
1022,80.00
1023,80.00
1024,4800.00
1025,4720.00
1026,4800.00
1027,4880.00
1028,4880.00
1029,4800.00
1030,4880.00
1031,4880.00
1032,4800.00
1033,4800.00
1034,4800.00
1035,4800.00
1036,4720.00
1037,4800.00
1038,4800.00
1039,4800.00
1040,4880.00
1041,4800.00
1042,4800.00
1043,4800.00
1044,4800.00
1045,4800.00
1046,4800.00
1047,4880.00
1048,4800.00
1049,4800.00
1050,4960.00
1051,4800.00
1052,4800.00
1053,4720.00
1054,4800.00
1055,4800.00
1056,4880.00
1057,4800.00
1058,4880.00
1059,4880.00
1060,4800.00
1061,4800.00
1062,4800.00
1063,4720.00
1064,4800.00
1065,4800.00
1066,4960.00
1067,80.00
1068,160.00
1069,80.00
1070,0.00
1071,0.00
1072,0.00
1073,80.00
1074,160.00
1075,80.00
1076,0.00
1077,0.00
1078,80.00
1079,4800.00
1080,4800.00
1081,4800.00
1082,4880.00
1083,4880.00
1084,4800.00
1085,4800.00
1086,4800.00
1087,4800.00
1088,4800.00
1089,4800.00
1090,4800.00
1091,4880.00
1092,4800.00
1093,4800.00
1094,4880.00
1095,4800.00
1096,4800.00
1097,4880.00
1098,4800.00
1099,4720.00
1100,4880.00
1101,4880.00
1102,4800.00
1103,4800.00
1104,4800.00
1105,4800.00
1106,4880.00
1107,4880.00
1108,4800.00
1109,4800.00
1110,0.00
1111,0.00
1112,240.00
1113,80.00
1114,80.00
1115,160.00
1116,80.00
1117,80.00
1118,0.00
1119,80.00
1120,160.00
1121,0.00
1122,4480.00
1123,4800.00
1124,4880.00
1125,4800.00
1126,4880.00
1127,4880.00
1128,4800.00
1129,4880.00
1130,4880.00
1131,4800.00
1132,4800.00
1133,4720.00
1134,4880.00
1135,4800.00
1136,4800.00
1137,4880.00
1138,4720.00
1139,4800.00
1140,4800.00
1141,4800.00
1142,4800.00
1143,4720.00
1144,4800.00
1145,4800.00
1146,4800.00
1147,4800.00
1148,4880.00
1149,4720.00
1150,4880.00
1151,4720.00
1152,4720.00
1153,4800.00
1154,4800.00
1155,4800.00
1156,4800.00
1157,4880.00
1158,4880.00
1159,4880.00
1160,4800.00
1161,4800.00
1162,4800.00
1163,4720.00
1164,4720.00
1165,4800.00
1166,4800.00
1167,4880.00
1168,4800.00
1169,4880.00
1170,4800.00
1171,4800.00
1172,4880.00
1173,4800.00
1174,4720.00
1175,4720.00
1176,4800.00
1177,4800.00
1178,4720.00
1179,4800.00
1180,4800.00
1181,4720.00
1182,4720.00
1183,4800.00
1184,4800.00
1185,4800.00
1186,4720.00
1187,4720.00
1188,4800.00
1189,4800.00
1190,4800.00
1191,4880.00
1192,4800.00
1193,4720.00
1194,4720.00
1195,4800.00
1196,4800.00
1197,4880.00
1198,1840.00
1199,0.00
1200,160.00
1201,240.00
1202,80.00
1203,160.00
1204,160.00
1205,0.00
1206,0.00
1207,80.00
1208,3040.00
1209,4800.00
1210,4880.00
1211,4800.00
1212,4800.00
1213,4720.00
1214,4880.00
1215,4800.00
1216,4800.00
1217,4800.00
1218,4880.00
1219,4720.00
1220,4720.00
1221,4800.00
1222,4800.00
1223,4880.00
1224,4800.00
1225,4800.00
1226,4880.00
1227,4800.00
1228,4720.00
1229,4800.00
1230,4800.00
1231,4720.00
1232,4800.00
1233,4880.00
1234,4800.00
1235,4720.00
1236,4800.00
1237,-80.00
1238,0.00
1239,0.00
1240,0.00
1241,0.00
1242,0.00
1243,0.00
1244,80.00
1245,160.00
1246,160.00
1247,0.00
1248,240.00
1249,4880.00
1250,4880.00
1251,4800.00
1252,4880.00
1253,4800.00
1254,4800.00
1255,4880.00
1256,4880.00
1257,4880.00
1258,4880.00
1259,4880.00
1260,4880.00
1261,4800.00
1262,4880.00
1263,4800.00
1264,4720.00
1265,4800.00
1266,4800.00
1267,4800.00
1268,4800.00
1269,4800.00
1270,4800.00
1271,4800.00
1272,4800.00
1273,4800.00
1274,4880.00
1275,4880.00
1276,4880.00
1277,4800.00
1278,4800.00
1279,4880.00
1280,4880.00
1281,4720.00
1282,4800.00
1283,4640.00
1284,4800.00
1285,4880.00
1286,4880.00
1287,4800.00
1288,4800.00
1289,4800.00
1290,4800.00
1291,4800.00
1292,4800.00
1293,4800.00
1294,4800.00
1295,4800.00
1296,4720.00
1297,4720.00
1298,4800.00
1299,4880.00
1300,4800.00
1301,4880.00
1302,4800.00
1303,4800.00
1304,4800.00
1305,4880.00
1306,4720.00
1307,4800.00
1308,4880.00
1309,4800.00
1310,4800.00
1311,4800.00
1312,4880.00
1313,4880.00
1314,4720.00
1315,4800.00
1316,4800.00
1317,4800.00
1318,4880.00
1319,4880.00
1320,4880.00
1321,4800.00
1322,4800.00
1323,4880.00
1324,4720.00
1325,4800.00
1326,4800.00
1327,4880.00
1328,4800.00
1329,4800.00
1330,4800.00
1331,4880.00
1332,4800.00
1333,4720.00
1334,4880.00
1335,4880.00
1336,4720.00
1337,4880.00
1338,4640.00
1339,4800.00
1340,4800.00
1341,4800.00
1342,4800.00
1343,4800.00
1344,4800.00
1345,4800.00
1346,4800.00
1347,4800.00
1348,4720.00
1349,4800.00
1350,4800.00
1351,4800.00
1352,4800.00
1353,4800.00
1354,4880.00
1355,4800.00
1356,4800.00
1357,4880.00
1358,4800.00
1359,4800.00
1360,4800.00
1361,4720.00
1362,4800.00
1363,4800.00
1364,4800.00
1365,4800.00
1366,4720.00
1367,4880.00
1368,4800.00
1369,4800.00
1370,4800.00
1371,4800.00
1372,4720.00
1373,4800.00
1374,4800.00
1375,4800.00
1376,4800.00
1377,4720.00
1378,4800.00
1379,4800.00
1380,4800.00
1381,240.00
1382,-80.00
1383,80.00
1384,0.00
1385,0.00
1386,160.00
1387,0.00
1388,0.00
1389,80.00
1390,80.00
1391,0.00
1392,160.00
1393,3440.00
1394,4800.00
1395,4800.00
1396,4880.00
1397,4880.00
1398,4880.00
1399,4800.00
1400,4880.00
1401,4800.00
1402,4800.00
1403,4800.00
1404,4800.00
1405,4800.00
1406,4720.00
1407,4800.00
1408,4720.00
1409,4800.00
1410,4880.00
1411,4880.00
1412,4880.00
1413,4880.00
1414,4800.00
1415,4800.00
1416,4800.00
1417,4800.00
1418,4800.00
1419,4800.00
1420,4880.00
1421,4800.00
1422,4800.00
1423,4800.00
1424,4720.00
1425,4720.00
1426,4800.00
1427,4800.00
1428,4800.00
1429,4800.00
1430,4800.00
1431,4800.00
1432,4800.00
1433,4880.00
1434,4800.00
1435,4720.00
1436,4800.00
1437,4800.00
1438,4720.00
1439,0.00
1440,0.00
1441,0.00
1442,80.00
1443,0.00
1444,160.00
1445,80.00
1446,0.00
1447,80.00
1448,0.00
1449,80.00
1450,80.00
1451,4800.00
1452,4880.00
1453,4880.00
1454,4960.00
1455,4800.00
1456,4880.00
1457,4880.00
1458,4880.00
1459,4880.00
1460,4800.00
1461,4720.00
1462,4800.00
1463,4720.00
1464,4880.00
1465,4880.00
1466,4800.00
1467,4800.00
1468,4880.00
1469,3840.00
1470,80.00
1471,0.00
1472,0.00
1473,80.00
1474,0.00
1475,0.00
1476,0.00
1477,160.00
1478,0.00
1479,0.00
1480,80.00
1481,2160.00
1482,4800.00
1483,4880.00
1484,4800.00
1485,4880.00
1486,4880.00
1487,4800.00
1488,4800.00
1489,4800.00
1490,4800.00
1491,4800.00
1492,4800.00
1493,4800.00
1494,4800.00
1495,4800.00
1496,4800.00
1497,4800.00
1498,4720.00
1499,4800.00
1500,4800.00
1501,4800.00
1502,4880.00
1503,4800.00
1504,4800.00
1505,4880.00
1506,4800.00
1507,4800.00
1508,4800.00
1509,4800.00
1510,4880.00
1511,4880.00
1512,4880.00
1513,4800.00
1514,4720.00
1515,4880.00
1516,4880.00
1517,4800.00
1518,4720.00
1519,4800.00
1520,4800.00
1521,4800.00
1522,4880.00
1523,4800.00
1524,4720.00
1525,4880.00
1526,4800.00
1527,4800.00
1528,4800.00
1529,4800.00
1530,4800.00
1531,4720.00
1532,4800.00
1533,4800.00
1534,4800.00
1535,4720.00
1536,4800.00
1537,4800.00
1538,4800.00
1539,4800.00
1540,4720.00
1541,4720.00
1542,4720.00
1543,4800.00
1544,4720.00
1545,4800.00
1546,4800.00
1547,4800.00
1548,4720.00
1549,4800.00
1550,4720.00
1551,4800.00
1552,4800.00
1553,4720.00
1554,4880.00
1555,4880.00
1556,4800.00
1557,4800.00
1558,4720.00
1559,4720.00
1560,4800.00
1561,4720.00
1562,4800.00
1563,4720.00
1564,4800.00
1565,4880.00
1566,4800.00
1567,4880.00
1568,4880.00
1569,4880.00
1570,4880.00
1571,4800.00
1572,4800.00
1573,4720.00
1574,4800.00
1575,4720.00
1576,4800.00
1577,4800.00
1578,4800.00
1579,4800.00
1580,4800.00
1581,4800.00
1582,4800.00
1583,4800.00
1584,4720.00
1585,4800.00
1586,4720.00
1587,4800.00
1588,4880.00
1589,4720.00
1590,4720.00
1591,4720.00
1592,4800.00
1593,4720.00
1594,4800.00
1595,4800.00
1596,4800.00
1597,4800.00
1598,4800.00
1599,4800.00
1600,4800.00
1601,4800.00
1602,4800.00
1603,4800.00
1604,4720.00
1605,4800.00
1606,4720.00
1607,4800.00
1608,4720.00
1609,4800.00
1610,4800.00
1611,4720.00
1612,4880.00
1613,4800.00
1614,4800.00
1615,4800.00
1616,4720.00
1617,4720.00
1618,4800.00
1619,4880.00
1620,4800.00
1621,4800.00
1622,4800.00
1623,4800.00
1624,4800.00
1625,4880.00
1626,4880.00
1627,4720.00
1628,4800.00
1629,4800.00
1630,4800.00
1631,4720.00
1632,4880.00
1633,4880.00
1634,4800.00
1635,4800.00
1636,4800.00
1637,4720.00
1638,4800.00
1639,4800.00
1640,4800.00
1641,4800.00
1642,4800.00
1643,4800.00
1644,4800.00
1645,4800.00
1646,4800.00
1647,4800.00
1648,4800.00
1649,4800.00
1650,4800.00
1651,4880.00
1652,4800.00
1653,4880.00
1654,4720.00
1655,4800.00
1656,4720.00
1657,4720.00
1658,4800.00
1659,4720.00
1660,4800.00
1661,4880.00
1662,4880.00
1663,4880.00
1664,4800.00
1665,4800.00
1666,4800.00
1667,4800.00
1668,4800.00
1669,4720.00
1670,4800.00
1671,4880.00
1672,4800.00
1673,80.00
1674,0.00
1675,80.00
1676,160.00
1677,240.00
1678,80.00
1679,80.00
1680,0.00
1681,0.00
1682,0.00
1683,0.00
1684,240.00
1685,4720.00
1686,4800.00
1687,4880.00
1688,4800.00
1689,4800.00
1690,4800.00
1691,4800.00
1692,4880.00
1693,4800.00
1694,4880.00
1695,4880.00
1696,4720.00
1697,4800.00
1698,4800.00
1699,4720.00
1700,4800.00
1701,4800.00
1702,4880.00
1703,4800.00
1704,4800.00
1705,4800.00
1706,4720.00
1707,4880.00
1708,4800.00
1709,4880.00
1710,4800.00
1711,4800.00
1712,4800.00
1713,4800.00
1714,4880.00
1715,4720.00
1716,4800.00
1717,4800.00
1718,4720.00
1719,4800.00
1720,4800.00
1721,4800.00
1722,4800.00
1723,4800.00
1724,4720.00
1725,4720.00
1726,4880.00
1727,4800.00
1728,4800.00
1729,4800.00
1730,4800.00
1731,4800.00
1732,4880.00
1733,4880.00
1734,4800.00
1735,4800.00
1736,4800.00
1737,4800.00
1738,4640.00
1739,4720.00
1740,4800.00
1741,4800.00
1742,4800.00
1743,4800.00
1744,4800.00
1745,4880.00
1746,4800.00
1747,4800.00
1748,4800.00
1749,4800.00
1750,4800.00
1751,4800.00
1752,4800.00
1753,4880.00
1754,4720.00
1755,4720.00
1756,4800.00
1757,4800.00
1758,4800.00
1759,4800.00
1760,4800.00
1761,4800.00
1762,4720.00
1763,4880.00
1764,4640.00
1765,4800.00
1766,4880.00
1767,4720.00
1768,4800.00
1769,4720.00
1770,4720.00
1771,4800.00
1772,4800.00
1773,4800.00
1774,-640.00
1775,80.00
1776,0.00
1777,160.00
1778,80.00
1779,80.00
1780,0.00
1781,160.00
1782,80.00
1783,80.00
1784,160.00
1785,240.00
1786,3840.00
1787,4880.00
1788,4800.00
1789,4800.00
1790,4800.00
1791,4800.00
1792,4800.00
1793,4720.00
1794,4880.00
1795,4800.00
1796,4880.00
1797,4800.00
1798,4800.00
1799,4720.00
1800,4720.00
1801,4880.00
1802,4800.00
1803,4800.00
1804,4800.00
1805,4640.00
1806,4800.00
1807,4800.00
1808,4880.00
1809,4800.00
1810,4720.00
1811,4800.00
1812,4800.00
1813,4720.00
1814,4800.00
1815,4720.00
1816,4800.00
1817,4720.00
1818,4800.00
1819,4720.00
1820,4880.00
1821,4880.00
1822,4800.00
1823,4880.00
1824,4800.00
1825,4720.00
1826,4800.00
1827,4800.00
1828,4880.00
1829,4800.00
1830,4800.00
1831,4800.00
1832,4880.00
1833,4880.00
1834,4720.00
1835,4800.00
1836,4800.00
1837,4880.00
1838,4800.00
1839,4880.00
1840,4880.00
1841,4800.00
1842,4880.00
1843,4800.00
1844,4800.00
1845,4880.00
1846,4720.00
1847,4880.00
1848,4800.00
1849,4800.00
1850,4800.00
1851,4800.00
1852,4800.00
1853,4720.00
1854,4800.00
1855,4800.00
1856,4800.00
1857,4720.00
1858,4800.00
1859,4800.00
1860,4800.00
1861,4800.00
1862,4800.00
1863,4800.00
1864,4800.00
1865,4800.00
1866,4720.00
1867,4800.00
1868,4800.00
1869,4800.00
1870,4800.00
1871,4800.00
1872,4800.00
1873,4800.00
1874,4800.00
1875,4880.00
1876,4800.00
1877,4720.00
1878,4800.00
1879,4800.00
1880,4800.00
1881,4800.00
1882,4800.00
1883,4800.00
1884,4800.00
1885,4880.00
1886,4800.00
1887,4800.00
1888,4800.00
1889,4640.00
1890,4800.00
1891,4800.00
1892,4720.00
1893,4880.00
1894,4720.00
1895,4800.00
1896,4800.00
1897,4880.00
1898,4800.00
1899,4800.00
1900,4880.00
1901,4800.00
1902,160.00
1903,80.00
1904,240.00
1905,80.00
1906,0.00
1907,160.00
1908,160.00
1909,160.00
1910,80.00
1911,80.00
1912,240.00
1913,160.00
1914,4640.00
1915,4800.00
1916,4880.00
1917,4800.00
1918,4800.00
1919,4880.00
1920,4800.00
1921,4800.00
1922,4800.00
1923,4720.00
1924,4800.00
1925,4800.00
1926,4880.00
1927,4800.00
1928,4720.00
1929,4720.00
1930,4880.00
1931,4800.00
1932,4720.00
1933,4800.00
1934,4800.00
1935,4880.00
1936,4800.00
1937,4960.00
1938,4720.00
1939,4800.00
1940,4720.00
1941,4800.00
1942,4800.00
1943,4800.00
1944,4800.00
1945,4800.00
1946,4800.00
1947,4800.00
1948,4800.00
1949,4880.00
1950,4800.00
1951,4800.00
1952,4720.00
1953,4720.00
1954,4720.00
1955,4800.00
1956,4800.00
1957,4800.00
1958,4800.00
1959,4800.00
1960,4720.00
1961,4800.00
1962,4800.00
1963,4800.00
1964,4720.00
1965,4800.00
1966,4720.00
1967,4720.00
1968,4880.00
1969,4880.00
1970,4880.00
1971,4880.00
1972,4720.00
1973,4800.00
1974,4880.00
1975,4800.00
1976,4720.00
1977,4720.00
1978,4720.00
1979,4880.00
1980,4800.00
1981,4800.00
1982,4720.00
1983,4720.00
1984,4800.00
1985,4800.00
1986,4800.00
1987,4720.00
1988,4800.00
1989,4720.00
1990,4800.00
1991,4880.00
1992,4720.00
1993,4880.00
1994,4720.00
1995,4880.00
1996,4720.00
1997,4800.00
1998,4800.00
1999,4800.00
2000,4800.00
2001,4720.00
2002,4800.00
2003,4720.00
2004,4800.00
2005,4800.00
2006,4800.00
2007,4800.00
2008,4800.00
2009,4800.00
2010,4720.00
2011,4800.00
2012,4800.00
2013,4800.00
2014,4800.00
2015,4800.00
2016,4720.00
2017,4800.00
2018,4880.00
2019,4880.00
2020,4880.00
2021,4800.00
2022,4800.00
2023,4800.00
2024,4800.00
2025,4800.00
2026,4800.00
2027,4800.00
2028,4720.00
2029,4800.00
2030,4800.00
2031,4800.00
2032,4800.00
2033,4800.00
2034,4880.00
2035,4880.00
2036,4880.00
2037,4800.00
2038,4800.00
2039,4800.00
2040,4880.00
2041,4800.00
2042,4880.00
2043,4880.00
2044,4800.00
2045,4880.00
2046,-80.00
2047,80.00
2048,0.00
2049,80.00
2050,160.00
2051,0.00
2052,0.00
2053,0.00
2054,80.00
2055,0.00
2056,0.00
2057,160.00
2058,4640.00
2059,4960.00
2060,4880.00
2061,4880.00
2062,4800.00
2063,4720.00
2064,4800.00
2065,4800.00
2066,4800.00
2067,4800.00
2068,4800.00
2069,4880.00
2070,4800.00
2071,4800.00
2072,4800.00
2073,4800.00
2074,4800.00
2075,4800.00
2076,4800.00
2077,4800.00
2078,4720.00
2079,4800.00
2080,4800.00
2081,4880.00
2082,4720.00
2083,4800.00
2084,4720.00
2085,4800.00
2086,4800.00
2087,4800.00
2088,4800.00
2089,4800.00
2090,4880.00
2091,4880.00
2092,4800.00
2093,4880.00
2094,4800.00
2095,0.00
2096,240.00
2097,160.00
2098,-80.00
2099,0.00
2100,80.00
2101,160.00
2102,0.00
2103,160.00
2104,240.00
2105,240.00
2106,80.00
2107,4800.00
2108,4800.00
2109,4880.00
2110,4800.00
2111,4880.00
2112,4800.00
2113,4880.00
2114,4720.00
2115,4800.00
2116,4800.00
2117,4800.00
2118,4800.00
2119,4800.00
2120,4800.00
2121,4800.00
2122,4880.00
2123,4720.00
2124,4720.00
2125,4800.00
2126,4800.00
2127,4800.00
2128,4880.00
2129,4800.00
2130,4800.00
2131,4720.00
2132,4800.00
2133,4800.00
2134,4800.00
2135,4800.00
2136,4800.00
2137,4800.00
2138,4800.00
2139,4800.00
2140,4800.00
2141,4720.00
2142,4720.00
2143,4800.00
2144,4720.00
2145,4720.00
2146,4880.00
2147,4800.00
2148,4800.00
2149,4800.00
2150,4880.00
2151,4720.00
2152,4800.00
2153,4800.00
2154,4880.00
2155,4720.00
2156,4800.00
2157,4640.00
2158,4800.00
2159,4800.00
2160,4800.00
2161,4800.00
2162,4880.00
2163,4800.00
2164,4800.00
2165,4880.00
2166,4720.00
2167,4880.00
2168,4800.00
2169,4800.00
2170,4880.00
2171,4800.00
2172,4720.00
2173,4720.00
2174,4880.00
2175,4800.00
2176,4720.00
2177,4720.00
2178,4800.00
2179,4800.00
2180,4800.00
2181,4800.00
2182,4720.00
2183,4800.00
2184,4800.00
2185,4720.00
2186,4720.00
2187,4800.00
2188,4800.00
2189,4720.00
2190,4720.00
2191,4880.00
2192,4720.00
2193,4720.00
2194,4720.00
2195,4800.00
2196,4880.00
2197,4880.00
2198,4800.00
2199,4800.00
2200,4800.00
2201,4800.00
2202,4800.00
2203,4800.00
2204,4800.00
2205,4800.00
2206,4800.00
2207,4880.00
2208,4800.00
2209,4720.00
2210,4880.00
2211,4880.00
2212,4880.00
2213,4800.00
2214,4880.00
2215,4800.00
2216,4800.00
2217,4880.00
2218,4880.00
2219,4800.00
2220,4720.00
2221,4800.00
2222,4800.00
2223,4800.00
2224,4800.00
2225,4800.00
2226,4800.00
2227,4800.00
2228,4800.00
2229,4880.00
2230,4800.00
2231,4720.00
2232,4800.00
2233,4800.00
2234,4800.00
2235,4720.00
2236,4880.00
2237,4720.00
2238,4800.00
2239,4800.00
2240,4720.00
2241,4800.00
2242,4880.00
2243,4800.00
2244,4800.00
2245,4800.00
2246,4800.00
2247,4800.00
2248,4800.00
2249,4880.00
2250,4800.00
2251,4720.00
2252,4800.00
2253,4720.00
2254,4880.00
2255,4720.00
2256,4800.00
2257,4800.00
2258,4880.00
2259,4800.00
2260,4880.00
2261,4800.00
2262,4720.00
2263,4880.00
2264,4720.00
2265,4800.00
2266,4800.00
2267,4880.00
2268,4800.00
2269,4800.00
2270,4800.00
2271,4800.00
2272,4720.00
2273,4880.00
2274,4800.00
2275,4720.00
2276,4720.00
2277,4800.00
2278,4880.00
2279,4880.00
2280,4880.00
2281,4800.00
2282,4720.00
2283,4800.00
2284,4880.00
2285,4800.00
2286,4880.00
2287,4800.00
2288,4800.00
2289,4800.00
2290,4800.00
2291,4880.00
2292,4800.00
2293,4800.00
2294,4800.00
2295,0.00
2296,0.00
2297,160.00
2298,0.00
2299,80.00
2300,-80.00
2301,160.00
2302,160.00
2303,0.00
2304,160.00
2305,240.00
2306,80.00
2307,4400.00
2308,4880.00
2309,4800.00
2310,4800.00
2311,4880.00
2312,4800.00
2313,4800.00
2314,4800.00
2315,4800.00
2316,4880.00
2317,4800.00
2318,4880.00
2319,4880.00
2320,4800.00
2321,4880.00
2322,4800.00
2323,4800.00
2324,4800.00
2325,4720.00
2326,4720.00
2327,4800.00
2328,4800.00
2329,4720.00
2330,4720.00
2331,160.00
2332,0.00
2333,0.00
2334,0.00
2335,0.00
2336,0.00
2337,0.00
2338,0.00
2339,0.00
2340,160.00
2341,80.00
2342,0.00
2343,4800.00
2344,4800.00
2345,4800.00
2346,4800.00
2347,4800.00
2348,4880.00
2349,4800.00
2350,4720.00
2351,4800.00
2352,4720.00
2353,4800.00
2354,4880.00
2355,4800.00
2356,4800.00
2357,4720.00
2358,4720.00
2359,4800.00
2360,4800.00
2361,4720.00
2362,4800.00
2363,4800.00
2364,4800.00
2365,4880.00
2366,4880.00
2367,4800.00
2368,4720.00
2369,4800.00
2370,4720.00
2371,4800.00
2372,4800.00
2373,4800.00
2374,4800.00
2375,4800.00
2376,4800.00
2377,4720.00
2378,4720.00
2379,4800.00
2380,4800.00
2381,4800.00
2382,4800.00
2383,4720.00
2384,4800.00
2385,4800.00
2386,4800.00
2387,4800.00
2388,4800.00
2389,4880.00
2390,4800.00
2391,4720.00
2392,4800.00
2393,4800.00
2394,4720.00
2395,4800.00
2396,4800.00
2397,4720.00
2398,4800.00
2399,4800.00
2400,4800.00
2401,4880.00
2402,4800.00
2403,4800.00
2404,4880.00
2405,4800.00
2406,4880.00
2407,4800.00
2408,4800.00
2409,4800.00
2410,4800.00
2411,4720.00
2412,4720.00
2413,4800.00
2414,4880.00
2415,4800.00
2416,4880.00
2417,4800.00
2418,4720.00
2419,4800.00
2420,4880.00
2421,4800.00
2422,4800.00
2423,4720.00
2424,4800.00
2425,4720.00
2426,4800.00
2427,80.00
2428,0.00
2429,0.00
2430,0.00
2431,0.00
2432,80.00
2433,0.00
2434,0.00
2435,80.00
2436,0.00
2437,0.00
2438,0.00
2439,4560.00
2440,4880.00
2441,4880.00
2442,4800.00
2443,4880.00
2444,4800.00
2445,4800.00
2446,4800.00
2447,4800.00
2448,4880.00
2449,4800.00
2450,4800.00
2451,4880.00
2452,4800.00
2453,4800.00
2454,4800.00
2455,4800.00
2456,4880.00
2457,4800.00
2458,4800.00
2459,4880.00
2460,4800.00
2461,4880.00
2462,4800.00
2463,0.00
2464,0.00
2465,0.00
2466,0.00
2467,160.00
2468,80.00
2469,0.00
2470,160.00
2471,160.00
2472,160.00
2473,80.00
2474,480.00
2475,4880.00
2476,4880.00
2477,4800.00
2478,4880.00
2479,4800.00
2480,4880.00
2481,4800.00
2482,4800.00
2483,4800.00
2484,4800.00
2485,4800.00
2486,4800.00
2487,4800.00
2488,4800.00
2489,4800.00
2490,4800.00
2491,4880.00
2492,4800.00
2493,4800.00
2494,4800.00
2495,4800.00
2496,4800.00
2497,4720.00
2498,4880.00
2499,4800.00
2500,4800.00
2501,0.00
2502,80.00
2503,80.00
2504,80.00
2505,0.00
2506,0.00
2507,160.00
2508,0.00
2509,160.00
2510,0.00
2511,80.00
2512,240.00
2513,4800.00
2514,4880.00
2515,4800.00
2516,4800.00
2517,4800.00
2518,4880.00
2519,4800.00
2520,4800.00
2521,4800.00
2522,4800.00
2523,4800.00
2524,4720.00
2525,4800.00
2526,4800.00
2527,4800.00
2528,4720.00
2529,4800.00
2530,4800.00
2531,4800.00
2532,4800.00
2533,4800.00
2534,4720.00
2535,4800.00
2536,4800.00
2537,4800.00
2538,4800.00
2539,4720.00
2540,4800.00
2541,4800.00
2542,4880.00
2543,4800.00
2544,4880.00
2545,4720.00
2546,4880.00
2547,4880.00
2548,4800.00
2549,4800.00
2550,4800.00
2551,4720.00
2552,4800.00
2553,4800.00
2554,4800.00
2555,4800.00
2556,4800.00
2557,4800.00
2558,4720.00
2559,4720.00
2560,4800.00
2561,4800.00
2562,4880.00
2563,4800.00
2564,320.00
2565,0.00
2566,160.00
2567,0.00
2568,80.00
2569,0.00
2570,0.00
2571,80.00
2572,160.00
2573,80.00
2574,0.00
2575,0.00
2576,4240.00
2577,4880.00
2578,4800.00
2579,4800.00
2580,4800.00
2581,4880.00
2582,4880.00
2583,4720.00
2584,4800.00
2585,4800.00
2586,4800.00
2587,4800.00
2588,4800.00
2589,4800.00
2590,4800.00
2591,4800.00
2592,4880.00
2593,4720.00
2594,4880.00
2595,4880.00
2596,4880.00
2597,4720.00
2598,4880.00
2599,4800.00
2600,4800.00
2601,4720.00
2602,160.00
2603,0.00
2604,160.00
2605,240.00
2606,160.00
2607,240.00
2608,240.00
2609,0.00
2610,160.00
2611,80.00
2612,240.00
2613,240.00
2614,4720.00
2615,4880.00
2616,4800.00
2617,4800.00
2618,4800.00
2619,4880.00
2620,4800.00
2621,4800.00
2622,4800.00
2623,4800.00
2624,4880.00
2625,4880.00
2626,4800.00
2627,4800.00
2628,4720.00
2629,4800.00
2630,4800.00
2631,4720.00
2632,4800.00
2633,4800.00
2634,4800.00
2635,4800.00
2636,4800.00
2637,4800.00
2638,4800.00
2639,4880.00
2640,4800.00
2641,4720.00
2642,4800.00
2643,4800.00
2644,4800.00
2645,4800.00
2646,4800.00
2647,4800.00
2648,4640.00
2649,4880.00
2650,240.00
2651,80.00
2652,0.00
2653,160.00
2654,160.00
2655,80.00
2656,80.00
2657,160.00
2658,160.00
2659,160.00
2660,80.00
2661,160.00
2662,4720.00
2663,4880.00
2664,4800.00
2665,4800.00
2666,4800.00
2667,4800.00
2668,4800.00
2669,4880.00
2670,4960.00
2671,4800.00
2672,4880.00
2673,4880.00
2674,4800.00
2675,4880.00
2676,4720.00
2677,4880.00
2678,4800.00
2679,4720.00
2680,4800.00
2681,4800.00
2682,4800.00
2683,0.00
2684,-80.00
2685,0.00
2686,-80.00
2687,0.00
2688,80.00
2689,0.00
2690,80.00
2691,0.00
2692,160.00
2693,80.00
2694,0.00
2695,4800.00
2696,4800.00
2697,4800.00
2698,4880.00
2699,4880.00
2700,4800.00
2701,4720.00
2702,4880.00
2703,4800.00
2704,4800.00
2705,4800.00
2706,4800.00
2707,4720.00
2708,4800.00
2709,4800.00
2710,4800.00
2711,4800.00
2712,4800.00
2713,-80.00
2714,80.00
2715,0.00
2716,80.00
2717,160.00
2718,240.00
2719,0.00
2720,0.00
2721,0.00
2722,160.00
2723,0.00
2724,0.00
2725,4800.00
2726,4800.00
2727,4800.00
2728,4800.00
2729,4880.00
2730,4800.00
2731,4800.00
2732,4800.00
2733,4880.00
2734,4720.00
2735,4800.00
2736,4880.00
2737,4800.00
2738,4800.00
2739,4720.00
2740,4800.00
2741,4720.00
2742,4720.00
2743,4880.00
2744,4800.00
2745,4880.00
2746,4720.00
2747,4720.00
2748,4800.00
2749,4800.00
2750,4800.00
2751,4800.00
2752,4800.00
2753,4800.00
2754,4800.00
2755,4800.00
2756,4720.00
2757,4800.00
2758,4880.00
2759,240.00
2760,0.00
2761,0.00
2762,0.00
2763,0.00
2764,0.00
2765,0.00
2766,0.00
2767,0.00
2768,80.00
2769,160.00
2770,0.00
2771,4080.00
2772,4800.00
2773,4880.00
2774,4800.00
2775,4800.00
2776,4720.00
2777,4880.00
2778,4800.00
2779,4800.00
2780,4800.00
2781,4800.00
2782,4800.00
2783,4800.00
2784,4880.00
2785,4800.00
2786,4720.00
2787,4800.00
2788,4800.00
2789,4800.00
2790,4800.00
2791,4640.00
2792,4880.00
2793,4800.00
2794,4880.00
2795,4800.00
2796,4800.00
2797,4880.00
2798,4800.00
2799,4880.00
2800,4800.00
2801,4720.00
2802,4800.00
2803,4800.00
2804,4880.00
2805,4800.00
2806,4800.00
2807,4800.00
2808,4800.00
2809,4880.00
2810,4800.00
2811,4800.00
2812,4800.00
2813,4800.00
2814,4880.00
2815,4800.00
2816,4880.00
2817,4800.00
2818,4800.00
2819,4800.00
2820,4800.00
2821,4880.00
2822,4800.00
2823,4800.00
2824,4800.00
2825,4800.00
2826,4800.00
2827,4800.00
2828,4880.00
2829,4800.00
2830,4880.00
2831,4800.00
2832,4880.00
2833,4880.00
2834,4880.00
2835,2880.00
2836,0.00
2837,0.00
2838,80.00
2839,0.00
2840,80.00
2841,80.00
2842,160.00
2843,160.00
2844,0.00
2845,160.00
2846,160.00
2847,2640.00
2848,4800.00
2849,4880.00
2850,4800.00
2851,4880.00
2852,4800.00
2853,4800.00
2854,4880.00
2855,4800.00
2856,4880.00
2857,4880.00
2858,4800.00
2859,4800.00
2860,4800.00
2861,4800.00
2862,4800.00
2863,4880.00
2864,4800.00
2865,4800.00
2866,4800.00
2867,4720.00
2868,4720.00
2869,4800.00
2870,4880.00
2871,4800.00
2872,4800.00
2873,4800.00
2874,4800.00
2875,4800.00
2876,4720.00
2877,4720.00
2878,4800.00
2879,4800.00
2880,4800.00
2881,4720.00
2882,4800.00
2883,4800.00
2884,4800.00
2885,4800.00
2886,4800.00
2887,4800.00
2888,4720.00
2889,4720.00
2890,4800.00
2891,4720.00
2892,4800.00
2893,4800.00
2894,4720.00
2895,4880.00
2896,4800.00
2897,4800.00
2898,4880.00
2899,4880.00
2900,4800.00
2901,4800.00
2902,4720.00
2903,4800.00
2904,4720.00
2905,4800.00
2906,4800.00
2907,4800.00
2908,4720.00
2909,4720.00
2910,4720.00
2911,4880.00
2912,4800.00
2913,4800.00
2914,4880.00
2915,320.00
2916,0.00
2917,0.00
2918,0.00
2919,80.00
2920,0.00
2921,0.00
2922,0.00
2923,80.00
2924,0.00
2925,0.00
2926,80.00
2927,4320.00
2928,4800.00
2929,4800.00
2930,4800.00
2931,4800.00
2932,4880.00
2933,4800.00
2934,4880.00
2935,4880.00
2936,4800.00
2937,4720.00
2938,4880.00
2939,4720.00
2940,4800.00
2941,4800.00
2942,4880.00
2943,4800.00
2944,4720.00
2945,4880.00
2946,4800.00
2947,4800.00
2948,4720.00
2949,4800.00
2950,4800.00
2951,4800.00
2952,4800.00
2953,4800.00
2954,4800.00
2955,4880.00
2956,4800.00
2957,4800.00
2958,4800.00
2959,4800.00
2960,0.00
2961,0.00
2962,80.00
2963,0.00
2964,0.00
2965,160.00
2966,0.00
2967,160.00
2968,0.00
2969,160.00
2970,0.00
2971,1120.00
2972,4800.00
2973,4880.00
2974,4800.00
2975,4800.00
2976,4800.00
2977,4880.00
2978,4800.00
2979,4880.00
2980,4800.00
2981,4800.00
2982,4880.00
2983,4800.00
2984,4800.00
2985,4800.00
2986,4880.00
2987,4720.00
2988,4800.00
2989,4880.00
2990,4800.00
2991,4800.00
2992,4800.00
2993,4800.00
2994,4800.00
2995,4880.00
2996,4800.00
2997,4880.00
2998,4800.00
2999,4800.00
3000,4880.00
3001,4800.00
3002,4800.00
3003,4800.00
3004,4800.00
3005,4800.00
3006,4800.00
3007,4800.00
3008,4880.00
3009,4880.00
3010,4800.00
3011,4800.00
3012,4800.00
3013,4880.00
3014,4800.00
3015,4880.00
3016,4800.00
3017,4800.00
3018,4800.00
3019,4800.00
3020,4800.00
3021,4720.00
3022,4800.00
3023,4800.00
3024,4720.00
3025,4880.00
3026,4800.00
3027,4800.00
3028,4800.00
3029,4800.00
3030,4800.00
3031,4720.00
3032,4800.00
3033,4880.00
3034,4880.00
3035,4720.00
3036,4800.00
3037,4800.00
3038,4800.00
3039,4880.00
3040,4880.00
3041,4800.00
3042,4800.00
3043,4800.00
3044,4880.00
3045,4800.00
3046,4880.00
3047,4800.00
3048,4800.00
3049,4800.00
3050,4800.00
3051,4880.00
3052,4800.00
3053,4880.00
3054,4880.00
3055,4800.00
3056,4800.00
3057,4800.00
3058,4880.00
3059,4800.00
3060,4720.00
3061,4800.00
3062,4720.00
3063,4720.00
3064,4800.00
3065,4800.00
3066,4800.00
3067,4800.00
3068,4800.00
3069,4720.00
3070,4880.00
3071,4720.00
3072,4880.00
3073,4800.00
3074,4800.00
3075,4800.00
3076,4720.00
3077,4800.00
3078,4880.00
3079,4720.00
3080,4720.00
3081,4720.00
3082,4720.00
3083,4800.00
3084,4720.00
3085,4800.00
3086,4800.00
3087,4880.00
3088,4800.00
3089,4800.00
3090,4800.00
3091,4800.00
3092,4880.00
3093,4800.00
3094,4800.00
3095,4720.00
3096,4720.00
3097,4800.00
3098,4800.00
3099,4720.00
3100,4880.00
3101,4800.00
3102,4800.00
3103,0.00
3104,0.00
3105,0.00
3106,0.00
3107,0.00
3108,160.00
3109,160.00
3110,0.00
3111,160.00
3112,80.00
3113,0.00
3114,800.00
3115,4800.00
3116,4720.00
3117,4800.00
3118,4800.00
3119,4800.00
3120,4800.00
3121,4800.00
3122,4880.00
3123,4960.00
3124,4800.00
3125,4800.00
3126,4800.00
3127,4880.00
3128,4720.00
3129,4800.00
3130,4800.00
3131,4800.00
3132,4720.00
3133,4800.00
3134,4800.00
3135,4720.00
3136,4720.00
3137,4880.00
3138,4800.00
3139,4800.00
3140,4720.00
3141,4800.00
3142,4800.00
3143,4800.00
3144,4800.00
3145,4720.00
3146,4720.00
3147,80.00
3148,0.00
3149,0.00
3150,0.00
3151,0.00
3152,0.00
3153,0.00
3154,80.00
3155,0.00
3156,0.00
3157,0.00
3158,80.00
3159,4800.00
3160,4800.00
3161,4800.00
3162,4880.00
3163,4800.00
3164,4800.00
3165,4720.00
3166,4800.00
3167,4800.00
3168,4720.00
3169,4800.00
3170,4800.00
3171,4800.00
3172,4800.00
3173,4800.00
3174,4880.00
3175,4720.00
3176,4800.00
3177,4800.00
3178,4800.00
3179,4800.00
3180,0.00
3181,80.00
3182,0.00
3183,80.00
3184,80.00
3185,160.00
3186,80.00
3187,240.00
3188,160.00
3189,240.00
3190,240.00
3191,80.00
3192,4800.00
3193,4880.00
3194,4880.00
3195,4800.00
3196,4800.00
3197,4880.00
3198,4800.00
3199,4880.00
3200,4800.00
3201,4720.00
3202,4800.00
3203,4800.00
3204,4720.00
3205,4800.00
3206,4800.00
3207,4800.00
3208,4720.00
3209,4800.00
3210,4800.00
3211,4800.00
3212,4800.00
3213,4720.00
3214,4880.00
3215,2240.00
3216,0.00
3217,0.00
3218,160.00
3219,0.00
3220,0.00
3221,0.00
3222,0.00
3223,80.00
3224,80.00
3225,0.00
3226,0.00
3227,2960.00
3228,4880.00
3229,4800.00
3230,4880.00
3231,4800.00
3232,4880.00
3233,4880.00
3234,4800.00
3235,4800.00
3236,4800.00
3237,4800.00
3238,4800.00
3239,4880.00
3240,4800.00
3241,4880.00
3242,4720.00
3243,4800.00
3244,4800.00
3245,4800.00
3246,4880.00
3247,4800.00
3248,4880.00
3249,4800.00
3250,4800.00
3251,4800.00
3252,4880.00
3253,4880.00
3254,4880.00
3255,4880.00
3256,4800.00
3257,4800.00
3258,4720.00
3259,4800.00
3260,4800.00
3261,4800.00
3262,4800.00
3263,4800.00
3264,4800.00
3265,4880.00
3266,4800.00
3267,4800.00
3268,4800.00
3269,4800.00
3270,4880.00
3271,4800.00
3272,4800.00
3273,4800.00
3274,4880.00
3275,4880.00
3276,4880.00
3277,4720.00
3278,4800.00
3279,-160.00
3280,80.00
3281,80.00
3282,0.00
3283,80.00
3284,80.00
3285,80.00
3286,0.00
3287,0.00
3288,0.00
3289,80.00
3290,80.00
3291,4000.00
3292,4880.00
3293,4880.00
3294,4800.00
3295,4880.00
3296,4800.00
3297,4800.00
3298,4880.00
3299,4800.00
3300,4880.00
3301,4800.00
3302,4800.00
3303,4880.00
3304,4800.00
3305,4880.00
3306,4720.00
3307,4880.00
3308,4800.00
3309,4800.00
3310,4880.00
3311,4720.00
3312,4800.00
3313,4720.00
3314,4800.00
3315,4720.00
3316,4800.00
3317,4800.00
3318,4800.00
3319,4720.00
3320,4800.00
3321,4800.00
3322,4800.00
3323,4880.00
3324,4800.00
3325,4800.00
3326,4800.00
3327,4880.00
3328,4800.00
3329,4720.00
3330,4800.00
3331,4800.00
3332,4800.00
3333,4800.00
3334,4800.00
3335,3200.00
3336,80.00
3337,-80.00
3338,80.00
3339,0.00
3340,0.00
3341,0.00
3342,0.00
3343,0.00
3344,0.00
3345,0.00
3346,80.00
3347,2400.00
3348,4800.00
3349,4720.00
3350,4800.00
3351,4800.00
3352,4880.00
3353,4880.00
3354,4800.00
3355,4880.00
3356,4800.00
3357,4880.00
3358,4800.00
3359,4880.00
3360,4720.00
3361,4800.00
3362,4800.00
3363,4720.00
3364,4800.00
3365,4800.00
3366,4720.00
3367,800.00
3368,0.00
3369,80.00
3370,0.00
3371,240.00
3372,160.00
3373,0.00
3374,0.00
3375,160.00
3376,160.00
3377,240.00
3378,0.00
3379,3360.00
3380,4880.00
3381,4880.00
3382,4880.00
3383,4800.00
3384,4720.00
3385,4800.00
3386,4880.00
3387,4800.00
3388,4880.00
3389,4800.00
3390,4880.00
3391,4880.00
3392,4720.00
3393,4800.00
3394,4880.00
3395,4800.00
3396,4800.00
3397,4800.00
3398,4720.00
3399,4800.00
3400,4720.00
3401,4800.00
3402,4800.00
3403,4800.00
3404,4800.00
3405,4800.00
3406,4720.00
3407,4800.00
3408,4880.00
3409,4800.00
3410,4880.00
3411,4720.00
3412,4800.00
3413,4720.00
3414,4720.00
3415,4800.00
3416,4720.00
3417,4800.00
3418,4800.00
3419,4800.00
3420,4720.00
3421,4800.00
3422,4800.00
3423,4880.00
3424,4800.00
3425,4880.00
3426,4800.00
3427,4880.00
3428,4800.00
3429,4800.00
3430,4720.00
3431,4800.00
3432,4800.00
3433,4880.00
3434,4880.00
3435,4800.00
3436,4720.00
3437,4800.00
3438,4800.00
3439,4800.00
3440,4800.00
3441,4800.00
3442,4720.00
3443,4800.00
3444,4800.00
3445,4800.00
3446,4720.00
3447,4720.00
3448,4800.00
3449,4800.00
3450,4800.00
3451,4800.00
3452,4880.00
3453,4800.00
3454,4880.00
3455,4800.00
3456,4880.00
3457,4880.00
3458,4800.00
3459,4800.00
3460,4800.00
3461,4800.00
3462,4800.00
3463,4800.00
3464,4800.00
3465,4800.00
3466,4800.00
3467,4800.00
3468,4720.00
3469,4800.00
3470,4880.00
3471,4800.00
3472,0.00
3473,0.00
3474,80.00
3475,-80.00
3476,0.00
3477,80.00
3478,0.00
3479,160.00
3480,0.00
3481,80.00
3482,0.00
3483,0.00
3484,4800.00
3485,4800.00
3486,4800.00
3487,4800.00
3488,4800.00
3489,4880.00
3490,4800.00
3491,4880.00
3492,4800.00
3493,4800.00
3494,4880.00
3495,4720.00
3496,4880.00
3497,4880.00
3498,4800.00
3499,4800.00
3500,4800.00
3501,4800.00
3502,4720.00
3503,4800.00
3504,4800.00
3505,4720.00
3506,4800.00
3507,4720.00
3508,4720.00
3509,4800.00
3510,4800.00
3511,4800.00
3512,4800.00
3513,4800.00
3514,4720.00
3515,4720.00
3516,4800.00
3517,4720.00
3518,4720.00
3519,4800.00
3520,4880.00
3521,4800.00
3522,4800.00
3523,4720.00
3524,4720.00
3525,4880.00
3526,4800.00
3527,4800.00
3528,4800.00
3529,4800.00
3530,4720.00
3531,4720.00
3532,4720.00
3533,4880.00
3534,4800.00
3535,4800.00
3536,4880.00
3537,4800.00
3538,4800.00
3539,4720.00
3540,4800.00
3541,4800.00
3542,4800.00
3543,4800.00
3544,4800.00
3545,4800.00
3546,4880.00
3547,4800.00
3548,4800.00
3549,4800.00
3550,4800.00
3551,4880.00
3552,4880.00
3553,4800.00
3554,4720.00
3555,4800.00
3556,4800.00
3557,4800.00
3558,4800.00
3559,4880.00
3560,4800.00
3561,4880.00
3562,4720.00
3563,4800.00
3564,4800.00
3565,4800.00
3566,4800.00
3567,4800.00
3568,4800.00
3569,4720.00
3570,4720.00
3571,4640.00
3572,4720.00
3573,4880.00
3574,4800.00
3575,4880.00
3576,4720.00
3577,4880.00
3578,4880.00
3579,4720.00
3580,4880.00
3581,4880.00
3582,4800.00
3583,4800.00
3584,4880.00
3585,4800.00
3586,4800.00
3587,4800.00
3588,4800.00
3589,4880.00
3590,4880.00
3591,4800.00
3592,4800.00
3593,4800.00
3594,4800.00
3595,4880.00
3596,4800.00
3597,4880.00
3598,4880.00
3599,4800.00
3600,4720.00
3601,4720.00
3602,4800.00
3603,4800.00
3604,4880.00
3605,4800.00
3606,4800.00
3607,4800.00
3608,4800.00
3609,4800.00
3610,4640.00
3611,4800.00
3612,4800.00
3613,4720.00
3614,4880.00
3615,4880.00
3616,4800.00
3617,4800.00
3618,4800.00
3619,4800.00
3620,4720.00
3621,4880.00
3622,4800.00
3623,4800.00
3624,4800.00
3625,4800.00
3626,4880.00
3627,4800.00
3628,4880.00
3629,4800.00
3630,4800.00
3631,4800.00
3632,4800.00
3633,4800.00
3634,4720.00
3635,4800.00
3636,4880.00
3637,4800.00
3638,4720.00
3639,4880.00
3640,4720.00
3641,4880.00
3642,4800.00
3643,4720.00
3644,4800.00
3645,4800.00
3646,4880.00
3647,4800.00
3648,4720.00
3649,4800.00
3650,4720.00
3651,4800.00
3652,4800.00
3653,4800.00
3654,4480.00
3655,-80.00
3656,80.00
3657,160.00
3658,80.00
3659,0.00
3660,160.00
3661,0.00
3662,80.00
3663,0.00
3664,0.00
3665,0.00
3666,1600.00
3667,4800.00
3668,4880.00
3669,4800.00
3670,4880.00
3671,4880.00
3672,4880.00
3673,4880.00
3674,4800.00
3675,4800.00
3676,4880.00
3677,4800.00
3678,4800.00
3679,4800.00
3680,4800.00
3681,4800.00
3682,4800.00
3683,4880.00
3684,4800.00
3685,4800.00
3686,4880.00
3687,4800.00
3688,4800.00
3689,4880.00
3690,4800.00
3691,4800.00
3692,4880.00
3693,4800.00
3694,4720.00
3695,4800.00
3696,4800.00
3697,4880.00
3698,4240.00
3699,0.00
3700,0.00
3701,80.00
3702,0.00
3703,80.00
3704,0.00
3705,0.00
3706,0.00
3707,0.00
3708,0.00
3709,80.00
3710,2000.00
3711,4880.00
3712,4880.00
3713,4720.00
3714,4800.00
3715,4880.00
3716,4880.00
3717,4960.00
3718,4800.00
3719,4800.00
3720,4800.00
3721,4800.00
3722,4800.00
3723,4720.00
3724,4880.00
3725,4800.00
3726,4800.00
3727,4800.00
3728,4800.00
3729,4800.00
3730,4800.00
3731,4800.00
3732,4800.00
3733,4720.00
3734,4720.00
3735,4880.00
3736,4720.00
3737,4880.00
3738,4880.00
3739,4880.00
3740,4800.00
3741,4720.00
3742,4880.00
3743,4720.00
3744,4800.00
3745,4800.00
3746,4800.00
3747,4800.00
3748,4720.00
3749,4800.00
3750,4800.00
3751,4800.00
3752,4800.00
3753,-80.00
3754,0.00
3755,0.00
3756,80.00
3757,80.00
3758,0.00
3759,80.00
3760,0.00
3761,0.00
3762,160.00
3763,0.00
3764,80.00
3765,4800.00
3766,4800.00
3767,4800.00
3768,4800.00
3769,4880.00
3770,4880.00
3771,4800.00
3772,4800.00
3773,4800.00
3774,4800.00
3775,4800.00
3776,4800.00
3777,4800.00
3778,4800.00
3779,4800.00
3780,4800.00
3781,4880.00
3782,4800.00
3783,4800.00
3784,4800.00
3785,4720.00
3786,4800.00
3787,4880.00
3788,4800.00
3789,4800.00
3790,4800.00
3791,4880.00
3792,4800.00
3793,4880.00
3794,4720.00
3795,4720.00
3796,4720.00
3797,80.00
3798,80.00
3799,0.00
3800,0.00
3801,160.00
3802,160.00
3803,0.00
3804,0.00
3805,0.00
3806,240.00
3807,0.00
3808,0.00
3809,4880.00
3810,4880.00
3811,4880.00
3812,4800.00
3813,4880.00
3814,4800.00
3815,4800.00
3816,4720.00
3817,4800.00
3818,4800.00
3819,4800.00
3820,4880.00
3821,4800.00
3822,4880.00
3823,4800.00
3824,4880.00
3825,4880.00
3826,4880.00
3827,4800.00
3828,4800.00
3829,4800.00
3830,4800.00
3831,4800.00
3832,4720.00
3833,4800.00
3834,4800.00
3835,4800.00
3836,4800.00
3837,4800.00
3838,4720.00
3839,4720.00
3840,4880.00
3841,4800.00
3842,4800.00
3843,4880.00
3844,4880.00
3845,4800.00
3846,4880.00
3847,4800.00
3848,4800.00
3849,4800.00
3850,4800.00
3851,4720.00
3852,4800.00
3853,4880.00
3854,4800.00
3855,4800.00
3856,4720.00
3857,4800.00
3858,4800.00
3859,4720.00
3860,4800.00
3861,4880.00
3862,4800.00
3863,4720.00
3864,4800.00
3865,4800.00
3866,4720.00
3867,4800.00
3868,4720.00
3869,4800.00
3870,4720.00
3871,4880.00
3872,4880.00
3873,4800.00
3874,4800.00
3875,4880.00
3876,4800.00
3877,4800.00
3878,4720.00
3879,4880.00
3880,4800.00
3881,4800.00
3882,4800.00
3883,4800.00
3884,4720.00
3885,4800.00
3886,4800.00
3887,4800.00
3888,4880.00
3889,4880.00
3890,4720.00
3891,4880.00
3892,4800.00
3893,4800.00
3894,4880.00
3895,4800.00
3896,4800.00
3897,4720.00
3898,4800.00
3899,4720.00
3900,4800.00
3901,4800.00
3902,4720.00
3903,4800.00
3904,4800.00
3905,4720.00
3906,4800.00
3907,4800.00
3908,4800.00
3909,4720.00
3910,4720.00
3911,4640.00
3912,4800.00
3913,4720.00
3914,4800.00
3915,4800.00
3916,4800.00
3917,4800.00
3918,4720.00
3919,4800.00
3920,4800.00
3921,4720.00
3922,4800.00
3923,4720.00
3924,4800.00
3925,4800.00
3926,4720.00
3927,4800.00
3928,4720.00
3929,4720.00
3930,4800.00
3931,4800.00
3932,4800.00
3933,4800.00
3934,4800.00
3935,4800.00
3936,4800.00
3937,4880.00
3938,4800.00
3939,4880.00
3940,4800.00
3941,4800.00
3942,4800.00
3943,0.00
3944,160.00
3945,0.00
3946,240.00
3947,160.00
3948,160.00
3949,0.00
3950,80.00
3951,80.00
3952,0.00
3953,0.00
3954,80.00
3955,4560.00
3956,4800.00
3957,4800.00
3958,4880.00
3959,4800.00
3960,4880.00
3961,4800.00
3962,4800.00
3963,4800.00
3964,4720.00
3965,4800.00
3966,4800.00
3967,4800.00
3968,4800.00
3969,4880.00
3970,4720.00
3971,4880.00
3972,4880.00
3973,4800.00
3974,4720.00
3975,4800.00
3976,4800.00
3977,4880.00
3978,4720.00
3979,4880.00
3980,80.00
3981,80.00
3982,160.00
3983,80.00
3984,80.00
3985,80.00
3986,160.00
3987,240.00
3988,80.00
3989,160.00
3990,160.00
3991,1200.00
3992,4880.00
3993,4800.00
3994,4880.00
3995,4880.00
3996,4880.00
3997,4800.00
3998,4880.00
3999,4800.00
4000,4800.00
4001,4880.00
4002,4800.00
4003,4880.00
4004,4880.00
4005,4800.00
4006,4800.00
4007,4720.00
4008,4880.00
4009,4880.00
4010,4800.00
4011,4800.00
4012,4800.00
4013,4800.00
4014,4800.00
4015,4800.00
4016,4800.00
4017,4800.00
4018,4720.00
4019,4800.00
4020,4800.00
4021,4720.00
4022,4800.00
4023,4800.00
4024,4800.00
4025,4880.00
4026,4720.00
4027,4800.00
4028,4720.00
4029,4880.00
4030,4800.00
4031,4880.00
4032,4720.00
4033,4800.00
4034,4800.00
4035,4800.00
4036,4880.00
4037,4800.00
4038,4880.00
4039,4800.00
4040,4880.00
4041,4880.00
4042,4800.00
4043,4800.00
4044,4800.00
4045,4800.00
4046,4800.00
4047,4880.00
4048,4720.00
4049,4720.00
4050,4880.00
4051,4880.00
4052,4800.00
4053,4880.00
4054,4880.00
4055,4800.00
4056,4880.00
4057,4800.00
4058,4800.00
4059,4720.00
4060,4720.00
4061,4800.00
4062,4720.00
4063,4800.00
4064,4720.00
4065,4800.00
4066,4800.00
4067,4800.00
4068,4800.00
4069,4800.00
4070,4800.00
4071,4800.00
4072,4720.00
4073,4880.00
4074,4800.00
4075,4800.00
4076,4720.00
4077,4800.00
4078,4800.00
4079,4720.00
4080,4800.00
4081,4800.00
4082,4800.00
4083,4800.00
4084,4800.00
4085,4880.00
4086,4800.00
4087,4800.00
4088,4720.00
4089,4800.00
4090,4720.00
4091,4720.00
4092,4800.00
4093,4800.00
4094,4800.00
4095,4800.00
4096,4800.00
4097,4880.00
4098,4720.00
4099,4720.00
4100,4800.00
4101,4720.00
4102,4800.00
4103,4800.00
4104,4880.00
4105,4720.00
4106,4800.00
4107,4720.00
4108,4880.00
4109,4800.00
4110,4720.00
4111,4800.00
4112,4800.00
4113,4800.00
4114,4800.00
4115,4720.00
4116,4800.00
4117,4800.00
4118,4720.00
4119,4800.00
4120,4800.00
4121,4800.00
4122,-80.00
4123,240.00
4124,240.00
4125,0.00
4126,80.00
4127,80.00
4128,80.00
4129,80.00
4130,0.00
4131,160.00
4132,160.00
4133,160.00
4134,4800.00
4135,4880.00
4136,4880.00
4137,4880.00
4138,4720.00
4139,4880.00
4140,4880.00
4141,4880.00
4142,4800.00
4143,4880.00
4144,4880.00
4145,4800.00
4146,4720.00
4147,4720.00
4148,4800.00
4149,4720.00
4150,4800.00
4151,4880.00
4152,4800.00
4153,4880.00
4154,4800.00
4155,4880.00
4156,4800.00
4157,-160.00
4158,0.00
4159,0.00
4160,0.00
4161,80.00
4162,0.00
4163,0.00
4164,240.00
4165,0.00
4166,240.00
4167,160.00
4168,160.00
4169,4560.00
4170,4800.00
4171,4880.00
4172,4880.00
4173,4880.00
4174,4880.00
4175,4800.00
4176,4800.00
4177,4800.00
4178,4800.00
4179,4800.00
4180,4800.00
4181,4880.00
4182,4800.00
4183,4800.00
4184,4800.00
4185,4880.00
4186,4720.00
4187,4800.00
4188,4880.00
4189,4800.00
4190,4800.00
4191,4720.00
4192,4720.00
4193,4800.00
4194,4800.00
4195,4880.00
4196,4800.00
4197,4720.00
4198,4640.00
4199,4800.00
4200,4880.00
4201,4800.00
4202,4800.00
4203,4880.00
4204,4880.00
4205,4800.00
4206,3920.00
4207,80.00
4208,0.00
4209,0.00
4210,240.00
4211,0.00
4212,160.00
4213,160.00
4214,0.00
4215,160.00
4216,80.00
4217,160.00
4218,1600.00
4219,4880.00
4220,4800.00
4221,4800.00
4222,4880.00
4223,4880.00
4224,4800.00
4225,4880.00
4226,4800.00
4227,4800.00
4228,4800.00
4229,4880.00
4230,4800.00
4231,4880.00
4232,4720.00
4233,4720.00
4234,4800.00
4235,4720.00
4236,4800.00
4237,4800.00
4238,4880.00
4239,4800.00
4240,4720.00
4241,4800.00
4242,0.00
4243,0.00
4244,80.00
4245,0.00
4246,160.00
4247,0.00
4248,80.00
4249,0.00
4250,0.00
4251,0.00
4252,0.00
4253,0.00
4254,4720.00
4255,4880.00
4256,4880.00
4257,4880.00
4258,4880.00
4259,4880.00
4260,4880.00
4261,4800.00
4262,4800.00
4263,4800.00
4264,4800.00
4265,4800.00
4266,4800.00
4267,4720.00
4268,4800.00
4269,4720.00
4270,4720.00
4271,4800.00
4272,4800.00
4273,4800.00
4274,4800.00
4275,4800.00
4276,4720.00
4277,4800.00
4278,4800.00
4279,4720.00
4280,4720.00
4281,4800.00
4282,4720.00
4283,4800.00
4284,4800.00
4285,4800.00
4286,4800.00
4287,4720.00
4288,4800.00
4289,4720.00
4290,4720.00
4291,4800.00
4292,4800.00
4293,4880.00
4294,4800.00
4295,4720.00
4296,4880.00
4297,4800.00
4298,4880.00
4299,4720.00
4300,4800.00
4301,4800.00
4302,4800.00
4303,4800.00
4304,4880.00
4305,4880.00
4306,4800.00
4307,4800.00
4308,4800.00
4309,4800.00
4310,4800.00
4311,4800.00
4312,4720.00
4313,4800.00
4314,4720.00
4315,4800.00
4316,4800.00
4317,4800.00
4318,4880.00
4319,4800.00
4320,4800.00
4321,4880.00
4322,4800.00
4323,4720.00
4324,4800.00
4325,4800.00
4326,4880.00
4327,4800.00
4328,4800.00
4329,4800.00
4330,4720.00
4331,4800.00
4332,4800.00
4333,4800.00
4334,4800.00
4335,4800.00
4336,4880.00
4337,4720.00
4338,4800.00
4339,4800.00
4340,4800.00
4341,4800.00
4342,4720.00
4343,4720.00
4344,4800.00
4345,4800.00
4346,4720.00
4347,4800.00
4348,4800.00
4349,4800.00
4350,4720.00
4351,4800.00
4352,4720.00
4353,4800.00
4354,4720.00
4355,4800.00
4356,4800.00
4357,4800.00
4358,4880.00
4359,4800.00
4360,4880.00
4361,4880.00
4362,4800.00
4363,4720.00
4364,4800.00
4365,4880.00
4366,4880.00
4367,4800.00
4368,4880.00
4369,4880.00
4370,4720.00
4371,4880.00
4372,4800.00
4373,4800.00
4374,4800.00
4375,4800.00
4376,4800.00
4377,4720.00
4378,4720.00
4379,4800.00
4380,4880.00
4381,4720.00
4382,4800.00
4383,4880.00
4384,4800.00
4385,4720.00
4386,4720.00
4387,4880.00
4388,4800.00
4389,4720.00
4390,4800.00
4391,4800.00
4392,4800.00
4393,4880.00
4394,4720.00
4395,4800.00
4396,4800.00
4397,4800.00
4398,4800.00
4399,4800.00
4400,4800.00
4401,4880.00
4402,4800.00
4403,4800.00
4404,4800.00
4405,4800.00
4406,4880.00
4407,4800.00
4408,4800.00
4409,4800.00
4410,4800.00
4411,4800.00
4412,4880.00
4413,4800.00
4414,4800.00
4415,4800.00
4416,4720.00
4417,4800.00
4418,4800.00
4419,4800.00
4420,4720.00
4421,4880.00
4422,4800.00
4423,4880.00
4424,4800.00
4425,4800.00
4426,4720.00
4427,4800.00
4428,4800.00
4429,4720.00
4430,4800.00
4431,4800.00
4432,4800.00
4433,4800.00
4434,4800.00
4435,4800.00
4436,4720.00
4437,4800.00
4438,4800.00
4439,4800.00
4440,4800.00
4441,4800.00
4442,4880.00
4443,4720.00
4444,4720.00
4445,4720.00
4446,4880.00
4447,4800.00
4448,4800.00
4449,4800.00
4450,4800.00
4451,4800.00
4452,4720.00
4453,4800.00
4454,4800.00
4455,80.00
4456,80.00
4457,80.00
4458,160.00
4459,160.00
4460,160.00
4461,0.00
4462,160.00
4463,160.00
4464,160.00
4465,0.00
4466,880.00
4467,4800.00
4468,4800.00
4469,4800.00
4470,4880.00
4471,4880.00
4472,4800.00
4473,4880.00
4474,4800.00
4475,4800.00
4476,4720.00
4477,4720.00
4478,4800.00
4479,4800.00
4480,4800.00
4481,4800.00
4482,4800.00
4483,4720.00
4484,4800.00
4485,4640.00
4486,4720.00
4487,4880.00
4488,4720.00
4489,4720.00
4490,4800.00
4491,4720.00
4492,4800.00
4493,4800.00
4494,4720.00
4495,4720.00
4496,4720.00
4497,4800.00
4498,4800.00
4499,4800.00
4500,4800.00
4501,4880.00
4502,4720.00
4503,4880.00
4504,4800.00
4505,4800.00
4506,4800.00
4507,4720.00
4508,4800.00
4509,4800.00
4510,4800.00
4511,4800.00
4512,4720.00
4513,4880.00
4514,4720.00
4515,4720.00
4516,4800.00
4517,4800.00
4518,4720.00
4519,4720.00
4520,4800.00
4521,4720.00
4522,4720.00
4523,4720.00
4524,4800.00
4525,4880.00
4526,4720.00
4527,4800.00
4528,4880.00
4529,4800.00
4530,4800.00
4531,-560.00
4532,80.00
4533,80.00
4534,80.00
4535,80.00
4536,-80.00
4537,80.00
4538,80.00
4539,0.00
4540,0.00
4541,80.00
4542,80.00
4543,3920.00
4544,4800.00
4545,4800.00
4546,4800.00
4547,4880.00
4548,4880.00
4549,4800.00
4550,4800.00
4551,4800.00
4552,4800.00
4553,4800.00
4554,4800.00
4555,4720.00
4556,4800.00
4557,4880.00
4558,4800.00
4559,4800.00
4560,4800.00
4561,4880.00
4562,4800.00
4563,4800.00
4564,400.00
4565,0.00
4566,160.00
4567,80.00
4568,160.00
4569,0.00
4570,80.00
4571,160.00
4572,240.00
4573,80.00
4574,80.00
4575,80.00
4576,4160.00
4577,4800.00
4578,4880.00
4579,4800.00
4580,4880.00
4581,4800.00
4582,4880.00
4583,4800.00
4584,4800.00
4585,4800.00
4586,4880.00
4587,4800.00
4588,4800.00
4589,4800.00
4590,4800.00
4591,4800.00
4592,4800.00
4593,4800.00
4594,4800.00
4595,4880.00
4596,4800.00
4597,4800.00
4598,4800.00
4599,4800.00
4600,4800.00
4601,4880.00
4602,4800.00
4603,4800.00
4604,4880.00
4605,4880.00
4606,4800.00
4607,4800.00
4608,4800.00
4609,4640.00
4610,4800.00
4611,4800.00
4612,4800.00
4613,4880.00
4614,4880.00
4615,4800.00
4616,4800.00
4617,4720.00
4618,4720.00
4619,4880.00
4620,4880.00
4621,4880.00
4622,4720.00
4623,4800.00
4624,4800.00
4625,4800.00
4626,4800.00
4627,4800.00
4628,4800.00
4629,4720.00
4630,4720.00
4631,4720.00
4632,4720.00
4633,4880.00
4634,4800.00
4635,4800.00
4636,4720.00
4637,4800.00
4638,4800.00
4639,4720.00
4640,4800.00
4641,4720.00
4642,4800.00
4643,4800.00
4644,4880.00
4645,4800.00
4646,4720.00
4647,4800.00
4648,4800.00
4649,4800.00
4650,4800.00
4651,4800.00
4652,4720.00
4653,4720.00
4654,4800.00
4655,4720.00
4656,4800.00
4657,4800.00
4658,4880.00
4659,0.00
4660,160.00
4661,0.00
4662,240.00
4663,160.00
4664,160.00
4665,160.00
4666,160.00
4667,160.00
4668,80.00
4669,160.00
4670,240.00
4671,4800.00
4672,4720.00
4673,4800.00
4674,4880.00
4675,4880.00
4676,4800.00
4677,4720.00
4678,4880.00
4679,4800.00
4680,4720.00
4681,4800.00
4682,4800.00
4683,4880.00
4684,4800.00
4685,4800.00
4686,4800.00
4687,4800.00
4688,4800.00
4689,4720.00
4690,4800.00
4691,4800.00
4692,4800.00
4693,4800.00
4694,4800.00
4695,4800.00
4696,4720.00
4697,4800.00
4698,4720.00
4699,4800.00
4700,4800.00
4701,4880.00
4702,4800.00
4703,4800.00
4704,4720.00
4705,4800.00
4706,4880.00
4707,4800.00
4708,4800.00
4709,4800.00
4710,4800.00
4711,4720.00
4712,4800.00
4713,4880.00
4714,4800.00
4715,4800.00
4716,4720.00
4717,4800.00
4718,4800.00
4719,4800.00
4720,4880.00
4721,4800.00
4722,4800.00
4723,4800.00
4724,4800.00
4725,4880.00
4726,4880.00
4727,4800.00
4728,4720.00
4729,4720.00
4730,4880.00
4731,4800.00
4732,4720.00
4733,4800.00
4734,4720.00
4735,4880.00
4736,4800.00
4737,4800.00
4738,4720.00
4739,4800.00
4740,4800.00
4741,4880.00
4742,4720.00
4743,4800.00
4744,4800.00
4745,4800.00
4746,4720.00
4747,4720.00
4748,4880.00
4749,4720.00
4750,4880.00
4751,4800.00
4752,4800.00
4753,4800.00
4754,3760.00
4755,160.00
4756,0.00
4757,80.00
4758,160.00
4759,80.00
4760,240.00
4761,160.00
4762,160.00
4763,160.00
4764,80.00
4765,160.00
4766,2320.00
4767,4880.00
4768,4800.00
4769,4800.00
4770,4880.00
4771,4880.00
4772,4880.00
4773,4880.00
4774,4960.00
4775,4880.00
4776,4880.00
4777,4800.00
4778,4880.00
4779,4800.00
4780,4720.00
4781,4880.00
4782,4800.00
4783,4720.00
4784,4880.00
4785,4800.00
4786,4880.00
4787,4800.00
4788,4800.00
4789,4800.00
4790,4800.00
4791,4800.00
4792,4800.00
4793,4800.00
4794,4800.00
4795,4880.00
4796,4720.00
4797,4800.00
4798,4800.00
4799,4800.00
4800,4880.00
4801,-640.00
4802,0.00
4803,160.00
4804,0.00
4805,160.00
4806,0.00
4807,160.00
4808,160.00
4809,240.00
4810,160.00
4811,160.00
4812,160.00
4813,3840.00
4814,4880.00
4815,4880.00
4816,4800.00
4817,4800.00
4818,4880.00
4819,4880.00
4820,4960.00
4821,4880.00
4822,4800.00
4823,4800.00
4824,4720.00
4825,4720.00
4826,4800.00
4827,4800.00
4828,4800.00
4829,4800.00
4830,4800.00
4831,4800.00
4832,4800.00
4833,4880.00
4834,4800.00
4835,4720.00
4836,4720.00
4837,4720.00
4838,4720.00
4839,4800.00
4840,4880.00
4841,4800.00
4842,4800.00
4843,4800.00
4844,4800.00
4845,4800.00
4846,4800.00
4847,4640.00
4848,4720.00
4849,4720.00
4850,4720.00
4851,4800.00
4852,4800.00
4853,4880.00
4854,4880.00
4855,4880.00
4856,4800.00
4857,4720.00
4858,4720.00
4859,4880.00
4860,4800.00
4861,4800.00
4862,4720.00
4863,4800.00
4864,4880.00
4865,4800.00
4866,4800.00
4867,4800.00
4868,4800.00
4869,4720.00
4870,4800.00
4871,4720.00
4872,4800.00
4873,4800.00
4874,4800.00
4875,4800.00
4876,4880.00
4877,4800.00
4878,4800.00
4879,4800.00
4880,4800.00
4881,4800.00
4882,4800.00
4883,4800.00
4884,4800.00
4885,4800.00
4886,4720.00
4887,4800.00
4888,4800.00
4889,4800.00
4890,4720.00
4891,4800.00
4892,4800.00
4893,4800.00
4894,4800.00
4895,4720.00
4896,4880.00
4897,4880.00
4898,4720.00
4899,4800.00
4900,4800.00
4901,4800.00
4902,4720.00
4903,4800.00
4904,4800.00
4905,4720.00
4906,4720.00
4907,4720.00
4908,4800.00
4909,-80.00
4910,0.00
4911,160.00
4912,80.00
4913,80.00
4914,160.00
4915,80.00
4916,240.00
4917,240.00
4918,160.00
4919,80.00
4920,80.00
4921,3520.00
4922,4880.00
4923,4880.00
4924,4800.00
4925,4800.00
4926,4880.00
4927,4880.00
4928,4880.00
4929,4720.00
4930,4800.00
4931,4800.00
4932,4880.00
4933,4960.00
4934,4800.00
4935,4880.00
4936,4800.00
4937,4800.00
4938,4800.00
4939,4800.00
4940,4800.00
4941,4800.00
4942,4800.00
4943,4800.00
4944,4800.00
4945,4880.00
4946,4640.00
4947,4720.00
4948,4880.00
4949,4800.00
4950,4800.00
4951,4800.00
4952,4880.00
4953,4720.00
4954,4800.00
4955,4800.00
4956,4800.00
4957,4720.00
4958,4880.00
4959,4720.00
4960,4720.00
4961,4800.00
4962,4800.00
4963,4800.00
4964,4800.00
4965,4800.00
4966,4800.00
4967,4720.00
4968,4800.00
4969,4720.00
4970,4720.00
4971,4720.00
4972,4720.00
4973,4800.00
4974,4720.00
4975,4880.00
4976,4800.00
4977,4720.00
4978,4880.00
4979,4880.00
4980,160.00
4981,80.00
4982,0.00
4983,160.00
4984,80.00
4985,80.00
4986,0.00
4987,160.00
4988,0.00
4989,240.00
4990,240.00
4991,80.00
4992,4880.00
4993,4800.00
4994,4800.00
4995,4880.00
4996,4880.00
4997,4800.00
4998,4800.00
4999,4800.00
5000,4800.00
5001,4800.00
5002,4800.00
5003,4800.00
5004,4800.00
5005,4720.00
5006,4720.00
5007,4800.00
5008,4720.00
5009,4800.00
5010,4800.00
5011,4720.00
5012,4880.00
5013,4800.00
5014,4720.00
5015,4720.00
5016,4720.00
5017,4720.00
5018,4720.00
5019,4880.00
5020,4720.00
5021,4880.00
5022,4800.00
5023,4800.00
5024,4800.00
5025,4720.00
5026,4800.00
5027,4800.00
5028,4720.00
5029,4800.00
5030,4800.00
5031,4800.00
5032,4800.00
5033,4800.00
5034,4800.00
5035,4800.00
5036,4720.00
5037,4800.00
5038,4880.00
5039,4880.00
5040,4720.00
5041,4720.00
5042,4800.00
5043,4800.00
5044,4720.00
5045,4800.00
5046,4800.00
5047,4880.00
5048,4800.00
5049,4800.00
5050,4800.00
5051,4800.00
5052,4800.00
5053,4720.00
5054,4880.00
5055,4800.00
5056,4800.00
5057,4880.00
5058,4720.00
5059,4720.00
5060,4800.00
5061,4720.00
5062,4720.00
5063,4800.00
5064,4880.00
5065,4800.00
5066,4800.00
5067,4800.00
5068,4720.00
5069,4800.00
5070,4720.00
5071,4800.00
5072,4800.00
5073,4800.00
5074,4800.00
5075,4800.00
5076,4800.00
5077,4720.00
5078,4800.00
5079,4800.00
5080,4800.00
5081,4800.00
5082,4800.00
5083,4800.00
5084,4800.00
5085,4800.00
5086,4880.00
5087,4800.00
5088,80.00
5089,0.00
5090,0.00
5091,80.00
5092,80.00
5093,80.00
5094,0.00
5095,0.00
5096,160.00
5097,160.00
5098,80.00
5099,160.00
5100,4640.00
5101,4880.00
5102,4880.00
5103,4800.00
5104,4800.00
5105,4800.00
5106,4800.00
5107,4800.00
5108,4800.00
5109,4800.00
5110,4800.00
5111,4800.00
5112,4800.00
5113,4800.00
5114,4800.00
5115,4720.00
5116,4800.00
5117,4800.00
5118,4800.00
5119,4800.00
5120,4800.00
5121,4800.00
5122,4800.00
5123,4800.00
5124,4800.00
5125,4720.00
5126,4800.00
5127,4800.00
5128,4800.00
5129,4720.00
5130,4800.00
5131,4800.00
5132,4800.00
5133,4800.00
5134,4800.00
5135,4800.00
5136,4800.00
5137,4800.00
5138,4800.00
5139,4800.00
5140,4800.00
5141,4880.00
5142,4800.00
5143,4800.00
5144,4720.00
5145,4800.00
5146,4800.00
5147,4800.00
5148,4800.00
5149,4800.00
5150,4800.00
5151,4720.00
5152,4960.00
5153,4800.00
5154,4880.00
5155,80.00
5156,80.00
5157,160.00
5158,0.00
5159,160.00
5160,80.00
5161,0.00
5162,80.00
5163,160.00
5164,160.00
5165,160.00
5166,80.00
5167,4800.00
5168,4880.00
5169,4880.00
5170,4800.00
5171,4720.00
5172,4880.00
5173,4880.00
5174,4880.00
5175,4880.00
5176,4880.00
5177,4800.00
5178,4720.00
5179,4800.00
5180,4800.00
5181,4800.00
5182,4800.00
5183,4880.00
5184,4800.00
5185,4880.00
5186,4800.00
5187,0.00
5188,0.00
5189,0.00
5190,0.00
5191,80.00
5192,0.00
5193,0.00
5194,0.00
5195,0.00
5196,80.00
5197,0.00
5198,160.00
5199,3440.00
5200,4800.00
5201,4800.00
5202,4800.00
5203,4880.00
5204,4880.00
5205,4880.00
5206,4880.00
5207,4800.00
5208,4800.00
5209,4880.00
5210,4800.00
5211,4800.00
5212,4720.00
5213,4800.00
5214,4800.00
5215,4880.00
5216,4800.00
5217,4800.00
5218,4800.00
5219,4880.00
5220,4880.00
5221,4720.00
5222,4880.00
5223,4800.00
5224,4800.00
5225,4800.00
5226,4800.00
5227,4800.00
5228,240.00
5229,80.00
5230,160.00
5231,80.00
5232,160.00
5233,80.00
5234,80.00
5235,80.00
5236,0.00
5237,160.00
5238,0.00
5239,0.00
5240,4400.00
5241,4880.00
5242,4880.00
5243,4880.00
5244,4800.00
5245,4800.00
5246,4800.00
5247,4800.00
5248,4800.00
5249,4720.00
5250,4800.00
5251,4880.00
5252,4720.00
5253,4800.00
5254,4800.00
5255,4800.00
5256,4720.00
5257,4800.00
5258,4880.00
5259,4880.00
5260,4800.00
5261,4880.00
5262,4800.00
5263,4800.00
5264,4880.00
5265,4800.00
5266,4800.00
5267,4880.00
5268,4800.00
5269,4800.00
5270,4800.00
5271,4800.00
5272,4800.00
5273,4800.00
5274,4720.00
5275,320.00
5276,80.00
5277,160.00
5278,0.00
5279,160.00
5280,80.00
5281,80.00
5282,160.00
5283,0.00
5284,80.00
5285,0.00
5286,0.00
5287,4400.00
5288,4800.00
5289,4960.00
5290,4800.00
5291,4800.00
5292,4720.00
5293,4800.00
5294,4800.00
5295,4800.00
5296,4800.00
5297,4800.00
5298,4800.00
5299,4880.00
5300,4880.00
5301,4800.00
5302,4880.00
5303,4800.00
5304,4800.00
5305,4800.00
5306,4800.00
5307,4800.00
5308,4880.00
5309,4800.00
5310,4880.00
5311,4800.00
5312,4800.00
5313,4880.00
5314,4720.00
5315,4800.00
5316,4800.00
5317,4800.00
5318,4880.00
5319,4720.00
5320,4800.00
5321,4720.00
5322,320.00
5323,0.00
5324,80.00
5325,80.00
5326,160.00
5327,80.00
5328,160.00
5329,240.00
5330,80.00
5331,80.00
5332,160.00
5333,0.00
5334,4400.00
5335,4800.00
5336,4800.00
5337,4800.00
5338,4800.00
5339,4800.00
5340,4800.00
5341,4800.00
5342,4880.00
5343,4720.00
5344,4800.00
5345,4800.00
5346,4720.00
5347,4800.00
5348,4880.00
5349,4880.00
5350,4800.00
5351,4720.00
5352,4800.00
5353,4800.00
5354,4800.00
5355,4800.00
5356,4880.00
5357,4800.00
5358,4800.00
5359,4720.00
5360,4720.00
5361,4800.00
5362,4800.00
5363,4800.00
5364,4800.00
5365,4880.00
5366,4800.00
5367,4880.00
5368,4880.00
5369,4800.00
5370,4800.00
5371,4800.00
5372,4880.00
5373,4800.00
5374,4720.00
5375,4800.00
5376,4720.00
5377,4800.00
5378,4800.00
5379,4800.00
5380,4880.00
5381,4800.00
5382,4720.00
5383,4800.00
5384,4800.00
5385,4800.00
5386,4800.00
5387,4800.00
5388,4720.00
5389,4800.00
5390,4800.00
5391,4800.00
5392,4800.00
5393,4800.00
5394,4880.00
5395,4800.00
5396,4800.00
5397,4800.00
5398,4720.00
5399,4720.00
5400,4800.00
5401,4800.00
5402,4800.00
5403,4800.00
5404,4880.00
5405,4800.00
5406,4880.00
5407,4720.00
5408,4880.00
5409,4800.00
5410,4800.00
5411,4800.00
5412,4800.00
5413,4800.00
5414,4800.00
5415,4800.00
5416,4880.00
5417,4800.00
5418,4720.00
5419,4800.00
5420,4880.00
5421,4800.00
5422,4720.00
5423,4800.00
5424,4880.00
5425,4800.00
5426,4720.00
5427,4800.00
5428,4800.00
5429,4880.00
5430,4800.00
5431,4720.00
5432,4800.00
5433,4880.00
5434,4720.00
5435,4720.00
5436,4720.00
5437,4800.00
5438,4800.00
5439,4800.00
5440,4800.00
5441,4720.00
5442,4720.00
5443,4800.00
5444,4800.00
5445,4800.00
5446,4720.00
5447,4800.00
5448,4720.00
5449,4800.00
5450,4800.00
5451,4800.00
5452,4800.00
5453,4800.00
5454,4800.00
5455,4800.00
5456,4720.00
5457,4800.00
5458,4800.00
5459,4720.00
5460,4800.00
5461,4800.00
5462,4880.00
5463,4800.00
5464,4800.00
5465,4800.00
5466,4800.00
5467,4720.00
5468,4800.00
5469,4720.00
5470,4800.00
5471,4880.00
5472,4800.00
5473,4880.00
5474,4800.00
5475,4800.00
5476,4800.00
5477,4800.00
5478,4800.00
5479,4800.00
5480,4800.00
5481,4800.00
5482,4800.00
5483,4800.00
5484,4800.00
5485,4720.00
5486,4800.00
5487,4800.00
5488,4880.00
5489,4720.00
5490,4720.00
5491,4800.00
5492,4800.00
5493,4800.00
5494,4800.00
5495,4720.00
5496,4800.00
5497,4800.00
5498,4800.00
5499,4800.00
5500,4800.00
5501,4720.00
5502,4880.00
5503,4800.00
5504,4720.00
5505,4880.00
5506,4800.00
5507,4800.00
5508,4720.00
5509,4800.00
5510,4800.00
5511,4800.00
5512,4800.00
5513,4800.00
5514,4880.00
5515,4800.00
5516,4800.00
5517,4800.00
5518,4800.00
5519,4800.00
5520,4800.00
5521,4800.00
5522,4720.00
5523,4800.00
5524,4800.00
5525,4800.00
5526,4800.00
5527,4960.00
5528,4800.00
5529,4800.00
5530,4800.00
5531,4800.00
5532,4800.00
5533,4800.00
5534,4800.00
5535,4800.00
5536,4800.00
5537,4800.00
5538,4880.00
5539,4880.00
5540,4880.00
5541,4800.00
5542,4800.00
5543,4800.00
5544,4800.00
5545,4800.00
5546,4800.00
5547,4800.00
5548,4800.00
5549,0.00
5550,0.00
5551,80.00
5552,0.00
5553,80.00
5554,160.00
5555,80.00
5556,0.00
5557,240.00
5558,0.00
5559,160.00
5560,80.00
5561,4880.00
5562,4880.00
5563,4880.00
5564,4880.00
5565,4880.00
5566,4800.00
5567,4880.00
5568,4880.00
5569,4800.00
5570,4800.00
5571,4800.00
5572,4800.00
5573,4880.00
5574,4800.00
5575,4720.00
5576,4800.00
5577,4720.00
5578,4880.00
5579,4800.00
5580,4800.00
5581,4800.00
5582,4800.00
5583,4800.00
5584,4800.00
5585,4800.00
5586,4800.00
5587,4720.00
5588,4800.00
5589,4720.00
5590,4880.00
5591,4800.00
5592,4800.00
5593,4720.00
5594,4720.00
5595,4800.00
5596,4800.00
5597,4720.00
5598,-160.00
5599,0.00
5600,0.00
5601,0.00
5602,80.00
5603,0.00
5604,0.00
5605,160.00
5606,80.00
5607,80.00
5608,80.00
5609,80.00
5610,3920.00
5611,4800.00
5612,4880.00
5613,4800.00
5614,4800.00
5615,4800.00
5616,4880.00
5617,4880.00
5618,4880.00
5619,4800.00
5620,4800.00
5621,4880.00
5622,4800.00
5623,4720.00
5624,4880.00
5625,4800.00
5626,4720.00
5627,4720.00
5628,4720.00
5629,4800.00
5630,4800.00
5631,4800.00
5632,4800.00
5633,4800.00
5634,2080.00
5635,0.00
5636,0.00
5637,0.00
5638,0.00
5639,0.00
5640,0.00
5641,80.00
5642,80.00
5643,0.00
5644,0.00
5645,80.00
5646,2800.00
5647,4800.00
5648,4720.00
5649,4800.00
5650,4880.00
5651,4800.00
5652,4800.00
5653,4880.00
5654,4800.00
5655,4800.00
5656,4800.00
5657,4800.00
5658,4720.00
5659,4800.00
5660,4800.00
5661,4800.00
5662,4880.00
5663,160.00
5664,80.00
5665,160.00
5666,240.00
5667,160.00
5668,160.00
5669,80.00
5670,160.00
5671,0.00
5672,160.00
5673,160.00
5674,0.00
5675,4800.00
5676,4800.00
5677,4800.00
5678,4880.00
5679,4800.00
5680,4800.00
5681,4880.00
5682,4800.00
5683,4800.00
5684,4800.00
5685,4800.00
5686,4880.00
5687,4880.00
5688,4720.00
5689,4720.00
5690,4800.00
5691,4800.00
5692,4880.00
5693,4800.00
5694,4800.00
5695,4800.00
5696,4720.00
5697,4800.00
5698,4800.00
5699,4880.00
5700,4880.00
5701,4800.00
5702,4880.00
5703,4800.00
5704,4800.00
5705,4720.00
5706,4800.00
5707,4720.00
5708,4800.00
5709,4880.00
5710,-640.00
5711,0.00
5712,80.00
5713,80.00
5714,0.00
5715,80.00
5716,160.00
5717,160.00
5718,240.00
5719,160.00
5720,160.00
5721,160.00
5722,3680.00
5723,4800.00
5724,4880.00
5725,4800.00
5726,4880.00
5727,4880.00
5728,4800.00
5729,4800.00
5730,4800.00
5731,4880.00
5732,4880.00
5733,4800.00
5734,4800.00
5735,4800.00
5736,4720.00
5737,4880.00
5738,4720.00
5739,4800.00
5740,4800.00
5741,4800.00
5742,4880.00
5743,4800.00
5744,4880.00
5745,4800.00
5746,4800.00
5747,4880.00
5748,4880.00
5749,4800.00
5750,4880.00
5751,4800.00
5752,4800.00
5753,4880.00
5754,4800.00
5755,4800.00
5756,4880.00
5757,4800.00
5758,4800.00
5759,4800.00
5760,4880.00
5761,4880.00
5762,400.00
5763,80.00
5764,80.00
5765,240.00
5766,80.00
5767,160.00
5768,240.00
5769,0.00
5770,160.00
5771,80.00
5772,0.00
5773,80.00
5774,4240.00
5775,4800.00
5776,4800.00
5777,4800.00
5778,4800.00
5779,4800.00
5780,4880.00
5781,4880.00
5782,4800.00
5783,4800.00
5784,4800.00
5785,4800.00
5786,4800.00
5787,4800.00
5788,4800.00
5789,4880.00
5790,4800.00
5791,4640.00
5792,4800.00
5793,4800.00
5794,4800.00
5795,4800.00
5796,4800.00
5797,4720.00
5798,4800.00
5799,4800.00
5800,4800.00
5801,4800.00
5802,400.00
5803,-80.00
5804,80.00
5805,160.00
5806,160.00
5807,80.00
5808,240.00
5809,0.00
5810,160.00
5811,0.00
5812,0.00
5813,160.00
5814,3120.00
5815,4800.00
5816,4880.00
5817,4800.00
5818,4800.00
5819,4880.00
5820,4880.00
5821,4720.00
5822,4720.00
5823,4880.00
5824,4800.00
5825,4880.00
5826,4800.00
5827,4720.00
5828,4880.00
5829,4720.00
5830,4720.00
5831,4880.00
5832,4800.00
5833,4800.00
5834,4800.00
5835,4800.00
5836,4800.00
5837,4720.00
5838,4800.00
5839,4720.00
5840,240.00
5841,0.00
5842,0.00
5843,80.00
5844,80.00
5845,0.00
5846,0.00
5847,0.00
5848,0.00
5849,80.00
5850,80.00
5851,160.00
5852,4160.00
5853,4880.00
5854,4880.00
5855,4880.00
5856,4800.00
5857,4800.00
5858,4720.00
5859,4800.00
5860,4800.00
5861,4880.00
5862,4880.00
5863,4800.00
5864,4720.00
5865,4720.00
5866,4720.00
5867,4720.00
5868,4720.00
5869,4800.00
5870,4800.00
5871,4800.00
5872,4800.00
5873,4880.00
5874,4800.00
5875,4880.00
5876,4720.00
5877,4800.00
5878,4880.00
5879,160.00
5880,0.00
5881,80.00
5882,160.00
5883,0.00
5884,0.00
5885,0.00
5886,0.00
5887,0.00
5888,160.00
5889,0.00
5890,0.00
5891,4240.00
5892,4800.00
5893,4800.00
5894,4800.00
5895,4800.00
5896,4800.00
5897,4800.00
5898,4880.00
5899,4800.00
5900,4720.00
5901,4800.00
5902,4800.00
5903,4800.00
5904,4720.00
5905,4720.00
5906,4880.00
5907,4720.00
5908,4800.00
5909,4800.00
5910,4800.00
5911,4720.00
5912,4800.00
5913,4720.00
5914,4880.00
5915,4800.00
5916,4720.00
5917,4800.00
5918,4880.00
5919,4800.00
5920,4800.00
5921,4800.00
5922,4800.00
5923,4800.00
5924,4800.00
5925,4800.00
5926,4800.00
5927,4720.00
5928,4880.00
5929,4800.00
5930,4800.00
5931,4800.00
5932,4800.00
5933,4880.00
5934,4800.00
5935,4800.00
5936,4880.00
5937,80.00
5938,0.00
5939,80.00
5940,0.00
5941,80.00
5942,80.00
5943,0.00
5944,0.00
5945,0.00
5946,160.00
5947,160.00
5948,160.00
5949,4720.00
5950,4800.00
5951,4800.00
5952,4800.00
5953,4800.00
5954,4800.00
5955,4880.00
5956,4880.00
5957,4720.00
5958,4800.00
5959,4800.00
5960,4800.00
5961,4800.00
5962,4800.00
5963,4720.00
5964,4800.00
5965,4800.00
5966,4800.00
5967,4720.00
5968,4800.00
5969,4800.00
5970,4800.00
5971,4880.00
5972,4720.00
5973,4880.00
5974,4720.00
5975,4800.00
5976,4800.00
5977,4800.00
5978,0.00
5979,0.00
5980,80.00
5981,80.00
5982,0.00
5983,0.00
5984,0.00
5985,80.00
5986,160.00
5987,80.00
5988,80.00
5989,80.00
5990,4720.00
5991,4720.00
5992,4880.00
5993,4800.00
5994,4880.00
5995,4800.00
5996,4800.00
5997,4880.00
5998,4800.00
5999,4800.00
6000,4880.00
6001,4800.00
6002,4720.00
6003,4800.00
6004,4720.00
6005,4880.00
6006,4800.00
6007,4800.00
6008,4800.00
6009,4720.00
6010,80.00
6011,80.00
6012,0.00
6013,0.00
6014,80.00
6015,80.00
6016,80.00
6017,160.00
6018,0.00
6019,80.00
6020,0.00
6021,0.00
6022,4480.00
6023,4880.00
6024,4880.00
6025,4800.00
6026,4800.00
6027,4800.00
6028,4800.00
6029,4800.00
6030,4800.00
6031,4800.00
6032,4720.00
6033,4880.00
6034,4800.00
6035,4800.00
6036,4800.00
6037,4720.00
6038,4880.00
6039,4720.00
6040,4800.00
6041,4800.00
6042,4720.00
6043,0.00
6044,0.00
6045,0.00
6046,0.00
6047,80.00
6048,80.00
6049,80.00
6050,0.00
6051,0.00
6052,160.00
6053,160.00
6054,160.00
6055,4720.00
6056,4880.00
6057,4800.00
6058,4880.00
6059,4880.00
6060,4880.00
6061,4880.00
6062,4880.00
6063,4800.00
6064,4800.00
6065,4800.00
6066,4800.00
6067,4800.00
6068,4720.00
6069,4800.00
6070,4800.00
6071,4800.00
6072,4800.00
6073,4800.00
6074,4880.00
6075,4720.00
6076,4800.00
6077,4800.00
6078,4880.00
6079,4800.00
6080,4800.00
6081,4800.00
6082,4800.00
6083,4800.00
6084,0.00
6085,80.00
6086,0.00
6087,0.00
6088,0.00
6089,80.00
6090,240.00
6091,160.00
6092,160.00
6093,0.00
6094,80.00
6095,80.00
6096,4880.00
6097,4880.00
6098,4800.00
6099,4800.00
6100,4720.00
6101,4720.00
6102,4800.00
6103,4800.00
6104,4800.00
6105,4800.00
6106,4800.00
6107,4800.00
6108,4880.00
6109,4800.00
6110,4880.00
6111,4800.00
6112,4800.00
6113,4800.00
6114,4800.00
6115,4800.00
6116,4880.00
6117,4800.00
6118,4800.00
6119,4800.00
6120,4800.00
6121,4880.00
6122,4880.00
6123,4880.00
6124,4880.00
6125,4800.00
6126,4880.00
6127,4880.00
6128,4800.00
6129,4800.00
6130,4880.00
6131,4800.00
6132,4800.00
6133,4800.00
6134,4800.00
6135,4800.00
6136,4880.00
6137,4880.00
6138,4880.00
6139,4880.00
6140,0.00
6141,80.00
6142,160.00
6143,240.00
6144,160.00
6145,160.00
6146,80.00
6147,80.00
6148,80.00
6149,160.00
6150,160.00
6151,160.00
6152,4480.00
6153,4800.00
6154,4800.00
6155,4800.00
6156,4800.00
6157,4640.00
6158,4800.00
6159,4880.00
6160,4800.00
6161,4800.00
6162,4800.00
6163,4800.00
6164,4800.00
6165,4880.00
6166,4720.00
6167,4800.00
6168,4800.00
6169,4800.00
6170,4800.00
6171,4800.00
6172,4800.00
6173,4800.00
6174,4880.00
6175,4800.00
6176,4800.00
6177,4720.00
6178,4800.00
6179,4800.00
6180,4800.00
6181,4800.00
6182,4800.00
6183,4800.00
6184,320.00
6185,80.00
6186,80.00
6187,80.00
6188,0.00
6189,80.00
6190,80.00
6191,160.00
6192,0.00
6193,0.00
6194,160.00
6195,160.00
6196,4320.00
6197,4800.00
6198,4800.00
6199,4800.00
6200,4800.00
6201,4800.00
6202,4800.00
6203,4880.00
6204,4800.00
6205,4800.00
6206,4880.00
6207,4800.00
6208,4880.00
6209,4800.00
6210,4800.00
6211,4800.00
6212,4880.00
6213,4720.00
6214,4720.00
6215,4800.00
6216,4800.00
6217,4720.00
6218,4800.00
6219,4800.00
6220,4800.00
6221,320.00
6222,80.00
6223,80.00
6224,0.00
6225,0.00
6226,0.00
6227,80.00
6228,80.00
6229,0.00
6230,0.00
6231,160.00
6232,0.00
6233,3920.00
6234,4880.00
6235,4800.00
6236,4800.00
6237,4800.00
6238,4800.00
6239,4800.00
6240,4800.00
6241,4800.00
6242,4880.00
6243,4800.00
6244,4800.00
6245,4720.00
6246,4800.00
6247,4800.00
6248,4880.00
6249,4800.00
6250,4800.00
6251,4800.00
6252,4720.00
6253,4800.00
6254,4720.00
6255,4800.00
6256,4800.00
6257,4800.00
6258,80.00
6259,160.00
6260,80.00
6261,160.00
6262,0.00
6263,160.00
6264,160.00
6265,160.00
6266,240.00
6267,80.00
6268,80.00
6269,80.00
6270,4800.00
6271,4720.00
6272,4880.00
6273,4800.00
6274,4800.00
6275,4800.00
6276,4880.00
6277,4800.00
6278,4880.00
6279,4800.00
6280,4800.00
6281,4800.00
6282,4800.00
6283,4800.00
6284,4800.00
6285,4800.00
6286,4880.00
6287,4640.00
6288,4720.00
6289,4800.00
6290,4880.00
6291,4800.00
6292,4880.00
6293,4800.00
6294,4800.00
6295,4800.00
6296,4800.00
6297,4800.00
6298,4800.00
6299,4800.00
6300,4720.00
6301,4720.00
6302,4720.00
6303,4880.00
6304,4800.00
6305,4720.00
6306,4800.00
6307,4800.00
6308,4800.00
6309,4800.00
6310,4800.00
6311,4800.00
6312,4800.00
6313,4800.00
6314,4800.00
6315,4800.00
6316,4800.00
6317,4800.00
6318,4800.00
6319,4800.00
6320,4720.00
6321,4800.00
6322,4800.00
6323,4880.00
6324,4800.00
6325,4800.00
6326,4880.00
6327,4800.00
6328,4880.00
6329,4800.00
6330,4800.00
6331,4800.00
6332,4800.00
6333,4720.00
6334,4800.00
6335,4800.00
6336,4880.00
6337,4800.00
6338,4800.00
6339,4800.00
6340,4880.00
6341,4800.00
6342,4800.00
6343,4880.00
6344,4880.00
6345,4800.00
6346,4880.00
6347,4800.00
6348,4800.00
6349,4800.00
6350,4800.00
6351,4800.00
6352,4800.00
6353,4720.00
6354,4800.00
6355,4800.00
6356,4720.00
6357,4880.00
6358,4800.00
6359,4880.00
6360,4880.00
6361,4800.00
6362,4800.00
6363,4800.00
6364,4880.00
6365,4800.00
6366,4800.00
6367,4800.00
6368,4800.00
6369,4800.00
6370,4800.00
6371,4720.00
6372,4800.00
6373,4800.00
6374,4720.00
6375,4800.00
6376,4720.00
6377,4720.00
6378,4800.00
6379,4800.00
6380,4800.00
6381,4800.00
6382,4800.00
6383,4880.00
6384,4800.00
6385,4800.00
6386,4720.00
6387,4800.00
6388,4800.00
6389,4720.00
6390,4800.00
6391,4800.00
6392,4800.00
6393,4800.00
6394,4800.00
6395,4800.00
6396,4720.00
6397,4720.00
6398,4800.00
6399,4800.00
6400,4800.00
6401,4720.00
6402,4880.00
6403,4800.00
6404,4800.00
6405,4800.00
6406,4800.00
6407,4800.00
6408,4800.00
6409,4800.00
6410,4720.00
6411,4880.00
6412,4800.00
6413,4720.00
6414,4800.00
6415,4800.00
6416,4720.00
6417,4800.00
6418,4800.00
6419,4800.00
6420,4720.00
6421,4720.00
6422,4800.00
6423,4800.00
6424,4720.00
6425,4800.00
6426,4800.00
6427,4800.00
6428,4720.00
6429,4800.00
6430,4800.00
6431,4720.00
6432,4800.00
6433,4800.00
6434,4880.00
6435,4880.00
6436,4720.00
6437,4800.00
6438,4720.00
6439,4800.00
6440,4880.00
6441,4800.00
6442,4720.00
6443,4800.00
6444,4720.00
6445,4800.00
6446,4880.00
6447,4800.00
6448,4720.00
6449,4880.00
6450,240.00
6451,0.00
6452,0.00
6453,0.00
6454,160.00
6455,160.00
6456,80.00
6457,80.00
6458,240.00
6459,160.00
6460,160.00
6461,80.00
6462,4400.00
6463,4800.00
6464,4800.00
6465,4800.00
6466,4880.00
6467,4800.00
6468,4800.00
6469,4800.00
6470,4800.00
6471,4720.00
6472,4720.00
6473,4800.00
6474,4800.00
6475,4800.00
6476,4880.00
6477,4800.00
6478,4880.00
6479,4720.00
6480,4880.00
6481,4800.00
6482,4800.00
6483,4800.00
6484,4800.00
6485,4800.00
6486,4800.00
6487,4800.00
6488,4800.00
6489,4800.00
6490,4880.00
6491,4800.00
6492,4720.00
6493,4800.00
6494,4800.00
6495,4800.00
6496,4720.00
6497,4800.00
6498,4800.00
6499,4800.00
6500,4880.00
6501,4800.00
6502,4720.00
6503,4720.00
6504,4800.00
6505,4800.00
6506,4800.00
6507,4800.00
6508,4720.00
6509,4720.00
6510,4800.00
6511,4800.00
6512,4640.00
6513,4880.00
6514,4800.00
6515,4880.00
6516,4800.00
6517,4880.00
6518,2800.00
6519,160.00
6520,0.00
6521,80.00
6522,80.00
6523,80.00
6524,160.00
6525,80.00
6526,0.00
6527,160.00
6528,80.00
6529,160.00
6530,2640.00
6531,4960.00
6532,4800.00
6533,4800.00
6534,4800.00
6535,4800.00
6536,4880.00
6537,4800.00
6538,4880.00
6539,4800.00
6540,4880.00
6541,4800.00
6542,4800.00
6543,4800.00
6544,4880.00
6545,4800.00
6546,4800.00
6547,4880.00
6548,4880.00
6549,4160.00
6550,0.00
6551,0.00
6552,0.00
6553,0.00
6554,0.00
6555,80.00
6556,80.00
6557,0.00
6558,80.00
6559,0.00
6560,80.00
6561,1920.00
6562,4800.00
6563,4800.00
6564,4880.00
6565,4800.00
6566,4800.00
6567,4800.00
6568,4800.00
6569,4800.00
6570,4800.00
6571,4800.00
6572,4800.00
6573,4800.00
6574,4800.00
6575,4720.00
6576,4800.00
6577,4800.00
6578,4880.00
6579,720.00
6580,0.00
6581,0.00
6582,160.00
6583,160.00
6584,0.00
6585,160.00
6586,160.00
6587,160.00
6588,80.00
6589,0.00
6590,160.00
6591,3440.00
6592,4880.00
6593,4800.00
6594,4800.00
6595,4880.00
6596,4800.00
6597,4880.00
6598,4800.00
6599,4800.00
6600,4800.00
6601,4800.00
6602,4800.00
6603,4800.00
6604,4720.00
6605,4720.00
6606,4880.00
6607,4720.00
6608,4800.00
6609,4720.00
6610,4800.00
6611,4880.00
6612,4720.00
6613,4800.00
6614,4720.00
6615,4880.00
6616,4800.00
6617,4800.00
6618,4800.00
6619,4720.00
6620,4800.00
6621,4720.00
6622,4800.00
6623,4800.00
6624,4800.00
6625,4880.00
6626,4800.00
6627,4800.00
6628,80.00
6629,80.00
6630,80.00
6631,160.00
6632,240.00
6633,80.00
6634,80.00
6635,80.00
6636,160.00
6637,240.00
6638,80.00
6639,160.00
6640,4480.00
6641,4800.00
6642,4800.00
6643,4800.00
6644,4800.00
6645,4880.00
6646,4880.00
6647,4720.00
6648,4800.00
6649,4800.00
6650,4800.00
6651,4800.00
6652,4800.00
6653,4800.00
6654,4720.00
6655,4800.00
6656,4800.00
6657,4720.00
6658,4720.00
6659,4800.00
6660,4800.00
6661,4880.00
6662,4800.00
6663,0.00
6664,-80.00
6665,0.00
6666,0.00
6667,0.00
6668,0.00
6669,0.00
6670,80.00
6671,0.00
6672,160.00
6673,0.00
6674,640.00
6675,4800.00
6676,4720.00
6677,4800.00
6678,4800.00
6679,4800.00
6680,4800.00
6681,4800.00
6682,4720.00
6683,4800.00
6684,4800.00
6685,4800.00
6686,4800.00
6687,4800.00
6688,4720.00
6689,4800.00
6690,4800.00
6691,4880.00
6692,4800.00
6693,4800.00
6694,4800.00
6695,4720.00
6696,240.00
6697,80.00
6698,80.00
6699,80.00
6700,160.00
6701,80.00
6702,160.00
6703,0.00
6704,160.00
6705,0.00
6706,0.00
6707,0.00
6708,4560.00
6709,4960.00
6710,4800.00
6711,4880.00
6712,4880.00
6713,4880.00
6714,4800.00
6715,4880.00
6716,4800.00
6717,4800.00
6718,4880.00
6719,4880.00
6720,4800.00
6721,4800.00
6722,4800.00
6723,4800.00
6724,4800.00
6725,4800.00
6726,4800.00
6727,4800.00
6728,4800.00
6729,4800.00
6730,4800.00
6731,4880.00
6732,4800.00
6733,4800.00
6734,4880.00
6735,4800.00
6736,4800.00
6737,4800.00
6738,4800.00
6739,4880.00
6740,4800.00
6741,4800.00
6742,4800.00
6743,4800.00
6744,4800.00
6745,4800.00
6746,4800.00
6747,4880.00
6748,4800.00
6749,4800.00
6750,4880.00
6751,4800.00
6752,4800.00
6753,4880.00
6754,4800.00
6755,4800.00
6756,4880.00
6757,4720.00
6758,4880.00
6759,4880.00
6760,4800.00
6761,4800.00
6762,4800.00
6763,4800.00
6764,4800.00
6765,4800.00
6766,4800.00
6767,4800.00
6768,4720.00
6769,4800.00
6770,4880.00
6771,4880.00
6772,4800.00
6773,4800.00
6774,4800.00
6775,4800.00
6776,4720.00
6777,4720.00
6778,4800.00
6779,4880.00
6780,4800.00
6781,4800.00
6782,4800.00
6783,4800.00
6784,4720.00
6785,4800.00
6786,4800.00
6787,4800.00
6788,4800.00
6789,4720.00
6790,4800.00
6791,4800.00
6792,4800.00
6793,4880.00
6794,4800.00
6795,4720.00
6796,4800.00
6797,4880.00
6798,80.00
6799,80.00
6800,160.00
6801,80.00
6802,240.00
6803,0.00
6804,80.00
6805,80.00
6806,240.00
6807,160.00
6808,0.00
6809,1440.00
6810,4800.00
6811,4800.00
6812,4800.00
6813,4800.00
6814,4800.00
6815,4800.00
6816,4800.00
6817,4800.00
6818,4800.00
6819,4800.00
6820,4880.00
6821,4880.00
6822,4880.00
6823,4880.00
6824,4720.00
6825,4880.00
6826,4800.00
6827,4800.00
6828,4800.00
6829,4720.00
6830,4800.00
6831,4800.00
6832,4800.00
6833,4720.00
6834,4800.00
6835,4800.00
6836,4880.00
6837,4800.00
6838,4800.00
6839,4880.00
6840,4800.00
6841,4800.00
6842,4800.00
6843,4800.00
6844,4800.00
6845,80.00
6846,80.00
6847,240.00
6848,160.00
6849,160.00
6850,0.00
6851,0.00
6852,240.00
6853,160.00
6854,160.00
6855,160.00
6856,240.00
6857,4720.00
6858,4800.00
6859,4800.00
6860,4880.00
6861,4800.00
6862,4880.00
6863,4800.00
6864,4880.00
6865,4800.00
6866,4800.00
6867,4800.00
6868,4800.00
6869,4800.00
6870,4800.00
6871,4800.00
6872,4720.00
6873,4720.00
6874,4800.00
6875,4720.00
6876,4880.00
6877,4800.00
6878,4800.00
6879,4800.00
6880,4800.00
6881,4720.00
6882,4800.00
6883,4720.00
6884,4800.00
6885,160.00
6886,80.00
6887,0.00
6888,160.00
6889,0.00
6890,80.00
6891,160.00
6892,160.00
6893,160.00
6894,0.00
6895,80.00
6896,160.00
6897,4720.00
6898,4800.00
6899,4880.00
6900,4960.00
6901,4880.00
6902,4880.00
6903,4880.00
6904,4800.00
6905,4800.00
6906,4720.00
6907,4800.00
6908,4800.00
6909,4800.00
6910,4800.00
6911,4800.00
6912,4800.00
6913,4800.00
6914,4960.00
6915,4800.00
6916,4880.00
6917,4800.00
6918,4880.00
6919,4800.00
6920,4800.00
6921,4800.00
6922,4880.00
6923,4800.00
6924,4880.00
6925,4880.00
6926,4800.00
6927,4800.00
6928,4800.00
6929,4800.00
6930,4720.00
6931,4880.00
6932,4800.00
6933,4960.00
6934,4800.00
6935,4800.00
6936,4800.00
6937,4720.00
6938,4800.00
6939,4800.00
6940,4880.00
6941,4720.00
6942,4720.00
6943,4800.00
6944,4880.00
6945,4960.00
6946,4800.00
6947,4720.00
6948,4800.00
6949,4800.00
6950,4800.00
6951,4960.00
6952,4800.00
6953,4800.00
6954,4800.00
6955,4720.00
6956,4800.00
6957,4880.00
6958,4800.00
6959,4800.00
6960,4880.00
6961,4800.00
6962,4880.00
6963,4800.00
6964,4800.00
6965,4800.00
6966,4800.00
6967,4800.00
6968,4720.00
6969,4720.00
6970,4800.00
6971,4720.00
6972,4800.00
6973,4720.00
6974,4800.00
6975,4800.00
6976,4800.00
6977,4800.00
6978,80.00
6979,0.00
6980,80.00
6981,80.00
6982,0.00
6983,0.00
6984,80.00
6985,0.00
6986,80.00
6987,160.00
6988,80.00
6989,80.00
6990,4800.00
6991,4880.00
6992,4880.00
6993,4800.00
6994,4720.00
6995,4880.00
6996,4880.00
6997,4880.00
6998,4720.00
6999,4800.00
7000,4880.00
7001,4800.00
7002,4800.00
7003,4800.00
7004,4720.00
7005,4800.00
7006,4720.00
7007,4800.00
7008,4800.00
7009,4800.00
7010,4720.00
7011,4800.00
7012,4720.00
7013,4800.00
7014,4880.00
7015,4800.00
7016,4800.00
7017,-240.00
7018,80.00
7019,0.00
7020,80.00
7021,80.00
7022,80.00
7023,0.00
7024,160.00
7025,80.00
7026,160.00
7027,80.00
7028,0.00
7029,3440.00
7030,4880.00
7031,4800.00
7032,4880.00
7033,4880.00
7034,4960.00
7035,4880.00
7036,4800.00
7037,4800.00
7038,4800.00
7039,4800.00
7040,4800.00
7041,4800.00
7042,4800.00
7043,4800.00
7044,4800.00
7045,4720.00
7046,4720.00
7047,4800.00
7048,4800.00
7049,4800.00
7050,4800.00
7051,4880.00
7052,4800.00
7053,4720.00
7054,4720.00
7055,4800.00
7056,0.00
7057,0.00
7058,0.00
7059,0.00
7060,0.00
7061,0.00
7062,0.00
7063,0.00
7064,80.00
7065,80.00
7066,0.00
7067,0.00
7068,4640.00
7069,4800.00
7070,4800.00
7071,4880.00
7072,4800.00
7073,4800.00
7074,4800.00
7075,4880.00
7076,4880.00
7077,4720.00
7078,4800.00
7079,4800.00
7080,4800.00
7081,4880.00
7082,4800.00
7083,4880.00
7084,4800.00
7085,4720.00
7086,4880.00
7087,4880.00
7088,4800.00
7089,4880.00
7090,4720.00
7091,4800.00
7092,4880.00
7093,4800.00
7094,4800.00
7095,4800.00
7096,4880.00
7097,4880.00
7098,4880.00
7099,4720.00
7100,4720.00
7101,4880.00
7102,4720.00
7103,4880.00
7104,4800.00
7105,4800.00
7106,4800.00
7107,4800.00
7108,4800.00
7109,4800.00
7110,4800.00
7111,4720.00
7112,4800.00
7113,4800.00
7114,4880.00
7115,4800.00
7116,4800.00
7117,4800.00
7118,-80.00
7119,0.00
7120,0.00
7121,0.00
7122,0.00
7123,0.00
7124,0.00
7125,80.00
7126,0.00
7127,0.00
7128,160.00
7129,1360.00
7130,4880.00
7131,4800.00
7132,4800.00
7133,4880.00
7134,4880.00
7135,4720.00
7136,4960.00
7137,4800.00
7138,4800.00
7139,4800.00
7140,4880.00
7141,4800.00
7142,4880.00
7143,4800.00
7144,4960.00
7145,4880.00
7146,4800.00
7147,4880.00
7148,4800.00
7149,4880.00
7150,4880.00
7151,4800.00
7152,4880.00
7153,4800.00
7154,4720.00
7155,4720.00
7156,4880.00
7157,4640.00
7158,4800.00
7159,4800.00
7160,4800.00
7161,4800.00
7162,4720.00
7163,4800.00
7164,4800.00
7165,4880.00
7166,4720.00
7167,4800.00
7168,4880.00
7169,4800.00
7170,4880.00
7171,4880.00
7172,4720.00
7173,3840.00
7174,80.00
7175,240.00
7176,0.00
7177,80.00
7178,0.00
7179,0.00
7180,80.00
7181,80.00
7182,80.00
7183,0.00
7184,80.00
7185,2160.00
7186,4880.00
7187,4800.00
7188,4800.00
7189,4880.00
7190,4880.00
7191,4800.00
7192,4800.00
7193,4800.00
7194,4800.00
7195,4800.00
7196,4800.00
7197,4800.00
7198,4720.00
7199,4880.00
7200,4800.00
7201,4800.00
7202,4800.00
7203,4720.00
7204,4800.00
7205,4880.00
7206,4800.00
7207,4800.00
7208,4800.00
7209,4800.00
7210,4720.00
7211,4720.00
7212,4800.00
7213,4800.00
7214,4800.00
7215,4720.00
7216,4720.00
7217,4800.00
7218,4720.00
7219,4800.00
7220,4800.00
7221,4880.00
7222,4800.00
7223,4800.00
7224,4800.00
7225,4880.00
7226,4800.00
7227,4800.00
7228,160.00
7229,0.00
7230,80.00
7231,240.00
7232,240.00
7233,0.00
7234,0.00
7235,160.00
7236,80.00
7237,160.00
7238,80.00
7239,80.00
7240,4560.00
7241,4880.00
7242,4800.00
7243,4800.00
7244,4800.00
7245,4800.00
7246,4800.00
7247,4800.00
7248,4720.00
7249,4880.00
7250,4800.00
7251,4720.00
7252,4800.00
7253,4800.00
7254,4880.00
7255,4800.00
7256,4880.00
7257,4720.00
7258,4800.00
7259,4800.00
7260,4800.00
7261,4800.00
7262,4800.00
7263,4720.00
7264,4720.00
7265,4880.00
7266,240.00
7267,0.00
7268,80.00
7269,80.00
7270,0.00
7271,160.00
7272,80.00
7273,240.00
7274,160.00
7275,0.00
7276,80.00
7277,80.00
7278,4640.00
7279,4800.00
7280,4880.00
7281,4960.00
7282,4800.00
7283,4800.00
7284,4880.00
7285,4880.00
7286,4720.00
7287,4800.00
7288,4880.00
7289,4800.00
7290,4880.00
7291,4800.00
7292,4800.00
7293,4880.00
7294,4800.00
7295,4800.00
7296,4720.00
7297,4880.00
7298,4800.00
7299,4800.00
7300,4880.00
7301,4800.00
7302,4800.00
7303,4800.00
7304,4800.00
7305,4720.00
7306,4800.00
7307,4960.00
7308,4880.00
7309,4720.00
7310,4800.00
7311,4800.00
7312,4880.00
7313,4800.00
7314,4800.00
7315,4800.00
7316,4800.00
7317,4800.00
7318,4800.00
7319,4720.00
7320,4800.00
7321,4880.00
7322,4800.00
7323,4880.00
7324,4880.00
7325,4800.00
7326,4880.00
7327,4800.00
7328,4800.00
7329,4800.00
7330,4800.00
7331,4800.00
7332,240.00
7333,160.00
7334,0.00
7335,80.00
7336,80.00
7337,0.00
7338,240.00
7339,0.00
7340,0.00
7341,0.00
7342,240.00
7343,80.00
7344,4400.00
7345,4800.00
7346,4800.00
7347,4800.00
7348,4800.00
7349,4880.00
7350,4800.00
7351,4880.00
7352,4800.00
7353,4880.00
7354,4800.00
7355,4800.00
7356,4880.00
7357,4880.00
7358,4880.00
7359,4880.00
7360,4720.00
7361,4800.00
7362,4800.00
7363,4800.00
7364,4800.00
7365,4720.00
7366,4720.00
7367,4720.00
7368,-720.00
7369,160.00
7370,80.00
7371,160.00
7372,80.00
7373,80.00
7374,240.00
7375,80.00
7376,240.00
7377,0.00
7378,80.00
7379,160.00
7380,3600.00
7381,4880.00
7382,4800.00
7383,4880.00
7384,4880.00
7385,4800.00
7386,4880.00
7387,4800.00
7388,4800.00
7389,4720.00
7390,4720.00
7391,4800.00
7392,4800.00
7393,4800.00
7394,4800.00
7395,4800.00
7396,4800.00
7397,4880.00
7398,4720.00
7399,4720.00
7400,80.00
7401,80.00
7402,0.00
7403,80.00
7404,0.00
7405,80.00
7406,0.00
7407,-80.00
7408,80.00
7409,80.00
7410,80.00
7411,880.00
7412,4880.00
7413,4880.00
7414,4880.00
7415,4800.00
7416,4880.00
7417,4800.00
7418,4800.00
7419,4880.00
7420,4800.00
7421,4800.00
7422,4800.00
7423,4720.00
7424,4800.00
7425,4800.00
7426,4800.00
7427,4800.00
7428,4880.00
7429,4800.00
7430,4880.00
7431,4720.00
7432,4800.00
7433,4880.00
7434,4880.00
7435,4800.00
7436,4800.00
7437,4720.00
7438,80.00
7439,160.00
7440,0.00
7441,80.00
7442,0.00
7443,240.00
7444,80.00
7445,0.00
7446,80.00
7447,0.00
7448,160.00
7449,0.00
7450,4800.00
7451,4800.00
7452,4720.00
7453,4800.00
7454,4880.00
7455,4800.00
7456,4800.00
7457,4800.00
7458,4800.00
7459,4720.00
7460,4800.00
7461,4880.00
7462,4880.00
7463,4800.00
7464,4720.00
7465,4800.00
7466,4800.00
7467,4800.00
7468,4720.00
7469,4800.00
7470,4880.00
7471,4800.00
7472,4880.00
7473,4800.00
7474,4800.00
7475,4800.00
7476,4800.00
7477,4880.00
7478,4800.00
7479,4880.00
7480,4800.00
7481,4800.00
7482,4880.00
7483,4800.00
7484,4880.00
7485,4800.00
7486,4800.00
7487,4800.00
7488,4800.00
7489,4720.00
7490,4800.00
7491,4720.00
7492,4800.00
7493,4800.00
7494,4800.00
7495,4800.00
7496,4800.00
7497,4800.00
7498,4800.00
7499,4720.00
7500,4720.00
7501,4800.00
7502,4800.00
7503,4720.00
7504,4800.00
7505,4720.00
7506,4800.00
7507,4800.00
7508,4800.00
7509,4800.00
7510,4800.00
7511,4720.00
7512,4800.00
7513,4800.00
7514,4880.00
7515,4800.00
7516,4800.00
7517,4800.00
7518,4800.00
7519,4720.00
7520,4800.00
7521,4800.00
7522,4720.00
7523,4720.00
7524,4800.00
7525,4800.00
7526,4800.00
7527,4800.00
7528,4880.00
7529,4800.00
7530,4720.00
7531,4880.00
7532,4800.00
7533,4800.00
7534,4800.00
7535,4800.00
7536,4800.00
7537,4800.00
7538,4800.00
7539,4800.00
7540,320.00
7541,160.00
7542,80.00
7543,80.00
7544,160.00
7545,160.00
7546,80.00
7547,160.00
7548,80.00
7549,240.00
7550,160.00
7551,240.00
7552,4240.00
7553,4880.00
7554,4800.00
7555,4800.00
7556,4800.00
7557,4800.00
7558,4880.00
7559,4800.00
7560,4800.00
7561,4800.00
7562,4720.00
7563,4640.00
7564,4800.00
7565,4800.00
7566,4800.00
7567,4800.00
7568,4720.00
7569,4800.00
7570,4720.00
7571,4720.00
7572,4880.00
7573,4800.00
7574,4720.00
7575,4800.00
7576,4800.00
7577,4800.00
7578,-80.00
7579,0.00
7580,80.00
7581,0.00
7582,0.00
7583,160.00
7584,0.00
7585,80.00
7586,80.00
7587,80.00
7588,160.00
7589,240.00
7590,4480.00
7591,4800.00
7592,4880.00
7593,4800.00
7594,4880.00
7595,4880.00
7596,4800.00
7597,4800.00
7598,4800.00
7599,4800.00
7600,4800.00
7601,4800.00
7602,4800.00
7603,4880.00
7604,4800.00
7605,4800.00
7606,4800.00
7607,4880.00
7608,4800.00
7609,4800.00
7610,4800.00
7611,4800.00
7612,4800.00
7613,4800.00
7614,4800.00
7615,4800.00
7616,4880.00
7617,4800.00
7618,4720.00
7619,4800.00
7620,4720.00
7621,4800.00
7622,4720.00
7623,4800.00
7624,4800.00
7625,4800.00
7626,4800.00
7627,4800.00
7628,4800.00
7629,4800.00
7630,4880.00
7631,4880.00
7632,4720.00
7633,4800.00
7634,4800.00
7635,4800.00
7636,4880.00
7637,4800.00
7638,4800.00
7639,4800.00
7640,4720.00
7641,4800.00
7642,4800.00
7643,4800.00
7644,4800.00
7645,4800.00
7646,4720.00
7647,4720.00
7648,4720.00
7649,4880.00
7650,4800.00
7651,4880.00
7652,4800.00
7653,4720.00
7654,4800.00
7655,4800.00
7656,4720.00
7657,4720.00
7658,4800.00
7659,4720.00
7660,4880.00
7661,0.00
7662,0.00
7663,240.00
7664,0.00
7665,160.00
7666,160.00
7667,160.00
7668,240.00
7669,80.00
7670,160.00
7671,0.00
7672,160.00
7673,4720.00
7674,4880.00
7675,4800.00
7676,4800.00
7677,4800.00
7678,4800.00
7679,4720.00
7680,4880.00
7681,4720.00
7682,4800.00
7683,4800.00
7684,4880.00
7685,4800.00
7686,4880.00
7687,4720.00
7688,4800.00
7689,4800.00
7690,4800.00
7691,4800.00
7692,4800.00
7693,4800.00
7694,4800.00
7695,4800.00
7696,4800.00
7697,4880.00
7698,4800.00
7699,4800.00
7700,4800.00
7701,4800.00
7702,4720.00
7703,4880.00
7704,4800.00
7705,4720.00
7706,4800.00
7707,4880.00
7708,4800.00
7709,4800.00
7710,4880.00
7711,4800.00
7712,4800.00
7713,4800.00
7714,4880.00
7715,4720.00
7716,4880.00
7717,4800.00
7718,4800.00
7719,4800.00
7720,4800.00
7721,4880.00
7722,4800.00
7723,4720.00
7724,4720.00
7725,4800.00
7726,0.00
7727,80.00
7728,0.00
7729,0.00
7730,0.00
7731,80.00
7732,0.00
7733,0.00
7734,0.00
7735,0.00
7736,80.00
7737,0.00
7738,4800.00
7739,4800.00
7740,4880.00
7741,4880.00
7742,4800.00
7743,4720.00
7744,4800.00
7745,4800.00
7746,4800.00
7747,4800.00
7748,4800.00
7749,4800.00
7750,4800.00
7751,4800.00
7752,4720.00
7753,4800.00
7754,4880.00
7755,4880.00
7756,4880.00
7757,4720.00
7758,4720.00
7759,4800.00
7760,4800.00
7761,4800.00
7762,4800.00
7763,4800.00
7764,4800.00
7765,4800.00
7766,4720.00
7767,4720.00
7768,4800.00
7769,4800.00
7770,4720.00
7771,4880.00
7772,4800.00
7773,4800.00
7774,4800.00
7775,4720.00
7776,4720.00
7777,4800.00
7778,4800.00
7779,4800.00
7780,4800.00
7781,4720.00
7782,4800.00
7783,4800.00
7784,4800.00
7785,4800.00
7786,4800.00
7787,4800.00
7788,4800.00
7789,4800.00
7790,4720.00
7791,4880.00
7792,4720.00
7793,4800.00
7794,4720.00
7795,4800.00
7796,4800.00
7797,4800.00
7798,4720.00
7799,4800.00
7800,4800.00
7801,4720.00
7802,4720.00
7803,4800.00
7804,4800.00
7805,4800.00
7806,4720.00
7807,4880.00
7808,4800.00
7809,4720.00
7810,4800.00
7811,4800.00
7812,4720.00
7813,4800.00
7814,4800.00
7815,4800.00
7816,4800.00
7817,4720.00
7818,4720.00
7819,4720.00
7820,4720.00
7821,4800.00
7822,4720.00
7823,4720.00
7824,4800.00
7825,4800.00
7826,4800.00
7827,4880.00
7828,4800.00
7829,4880.00
7830,4800.00
7831,4800.00
7832,4800.00
7833,4800.00
7834,4800.00
7835,80.00
7836,80.00
7837,0.00
7838,0.00
7839,0.00
7840,0.00
7841,0.00
7842,0.00
7843,0.00
7844,80.00
7845,0.00
7846,160.00
7847,4800.00
7848,4880.00
7849,4800.00
7850,4880.00
7851,4800.00
7852,4800.00
7853,4880.00
7854,4880.00
7855,4800.00
7856,4800.00
7857,4800.00
7858,4800.00
7859,4800.00
7860,4800.00
7861,4800.00
7862,4800.00
7863,4880.00
7864,4800.00
7865,4880.00
7866,4880.00
7867,4880.00
7868,4880.00
7869,4800.00
7870,4800.00
7871,4800.00
7872,4800.00
7873,4720.00
7874,4800.00
7875,4720.00
7876,4720.00
7877,4720.00
7878,4800.00
7879,4800.00
7880,4720.00
7881,4800.00
7882,4720.00
7883,4800.00
7884,4800.00
7885,4880.00
7886,4800.00
7887,4800.00
7888,4720.00
7889,4720.00
7890,4800.00
7891,4800.00
7892,4720.00
7893,4800.00
7894,4800.00
7895,4800.00
7896,4800.00
7897,4800.00
7898,4800.00
7899,4720.00
7900,4800.00
7901,4800.00
7902,4880.00
7903,4880.00
7904,4800.00
7905,4800.00
7906,4800.00
7907,4880.00
7908,0.00
7909,-80.00
7910,0.00
7911,80.00
7912,80.00
7913,240.00
7914,80.00
7915,160.00
7916,160.00
7917,160.00
7918,0.00
7919,80.00
7920,4720.00
7921,4880.00
7922,4800.00
7923,4880.00
7924,4880.00
7925,4880.00
7926,4880.00
7927,4880.00
7928,4880.00
7929,4800.00
7930,4800.00
7931,4880.00
7932,4880.00
7933,4800.00
7934,4800.00
7935,4720.00
7936,4880.00
7937,4720.00
7938,4800.00
7939,4800.00
7940,4800.00
7941,4800.00
7942,4800.00
7943,4720.00
7944,4800.00
7945,4800.00
7946,320.00
7947,0.00
7948,0.00
7949,80.00
7950,0.00
7951,0.00
7952,0.00
7953,-80.00
7954,4800.00
7955,4800.00
7956,4720.00
7957,4720.00
7958,4800.00
7959,4800.00
7960,4800.00
7961,4800.00
7962,4720.00
7963,4800.00
7964,4800.00
7965,4800.00
7966,4800.00
7967,4720.00
7968,4800.00
7969,4880.00
7970,4720.00
7971,4880.00
7972,4800.00
7973,4800.00
7974,4880.00
7975,4800.00
7976,4880.00
7977,4720.00
7978,4880.00
7979,4800.00
7980,4720.00
7981,4800.00
7982,4800.00
7983,4800.00
7984,4800.00
7985,4720.00
7986,4800.00
7987,4800.00
7988,4800.00
7989,4720.00
7990,4800.00
7991,4800.00
7992,4800.00
7993,4720.00
7994,4720.00
7995,4800.00
7996,4880.00
7997,4800.00
7998,4800.00
7999,4720.00
