index,CH2_Voltage(mV)
0,4800.00
1,4800.00
2,4800.00
3,4800.00
4,4800.00
5,4800.00
6,4720.00
7,4800.00
8,4880.00
9,4800.00
10,4800.00
11,4800.00
12,4800.00
13,4800.00
14,4800.00
15,4800.00
16,4800.00
17,4800.00
18,4800.00
19,4800.00
20,4800.00
21,4880.00
22,4720.00
23,4800.00
24,4800.00
25,4720.00
26,4800.00
27,4800.00
28,4800.00
29,4800.00
30,4880.00
31,4800.00
32,4800.00
33,4800.00
34,4800.00
35,4800.00
36,4800.00
37,4800.00
38,4800.00
39,4800.00
40,4800.00
41,4800.00
42,4800.00
43,4800.00
44,4800.00
45,4720.00
46,4800.00
47,4800.00
48,4800.00
49,4800.00
50,4800.00
51,4880.00
52,4800.00
53,4800.00
54,4880.00
55,4800.00
56,4800.00
57,4800.00
58,4800.00
59,4800.00
60,4800.00
61,4800.00
62,4800.00
63,4880.00
64,4800.00
65,4800.00
66,4800.00
67,4800.00
68,4800.00
69,4800.00
70,4800.00
71,4880.00
72,4800.00
73,4800.00
74,4880.00
75,4800.00
76,4800.00
77,4880.00
78,4800.00
79,4800.00
80,4800.00
81,4800.00
82,4800.00
83,4800.00
84,4800.00
85,4800.00
86,4720.00
87,4800.00
88,4800.00
89,4800.00
90,4800.00
91,4800.00
92,4800.00
93,4880.00
94,4800.00
95,4800.00
96,4800.00
97,4800.00
98,4800.00
99,4800.00
100,4880.00
101,4880.00
102,4800.00
103,4800.00
104,4800.00
105,4800.00
106,4800.00
107,4800.00
108,4800.00
109,4880.00
110,4800.00
111,4800.00
112,4800.00
113,4800.00
114,4800.00
115,4800.00
116,4800.00
117,4800.00
118,4800.00
119,4800.00
120,4800.00
121,4800.00
122,4800.00
123,4800.00
124,4800.00
125,4800.00
126,4880.00
127,4720.00
128,4800.00
129,4800.00
130,4800.00
131,4800.00
132,4800.00
133,4800.00
134,4800.00
135,4800.00
136,4800.00
137,4800.00
138,4800.00
139,4800.00
140,4800.00
141,4800.00
142,4800.00
143,4800.00
144,4880.00
145,4800.00
146,4800.00
147,4800.00
148,4720.00
149,4800.00
150,4800.00
151,4800.00
152,4800.00
153,4800.00
154,4880.00
155,4800.00
156,4720.00
157,4800.00
158,4800.00
159,4880.00
160,4880.00
161,4800.00
162,4800.00
163,4800.00
164,4800.00
165,4800.00
166,4800.00
167,4800.00
168,4800.00
169,4880.00
170,4800.00
171,4800.00
172,4800.00
173,4880.00
174,4800.00
175,4800.00
176,4800.00
177,4720.00
178,4800.00
179,4800.00
180,4800.00
181,4800.00
182,4800.00
183,4800.00
184,4800.00
185,4800.00
186,4800.00
187,4800.00
188,4800.00
189,4800.00
190,4800.00
191,4800.00
192,4800.00
193,4720.00
194,4800.00
195,4800.00
196,4800.00
197,4800.00
198,4800.00
199,4800.00
200,4720.00
201,4800.00
202,4800.00
203,4800.00
204,4800.00
205,4800.00
206,4800.00
207,4800.00
208,4720.00
209,4800.00
210,4800.00
211,4800.00
212,4720.00
213,4720.00
214,4800.00
215,4800.00
216,4800.00
217,4800.00
218,4800.00
219,4800.00
220,4800.00
221,4880.00
222,4880.00
223,4800.00
224,4800.00
225,4800.00
226,4800.00
227,4800.00
228,4800.00
229,4800.00
230,4800.00
231,4880.00
232,4800.00
233,4800.00
234,4800.00
235,4800.00
236,4800.00
237,4800.00
238,4800.00
239,4800.00
240,4800.00
241,4800.00
242,4800.00
243,4800.00
244,4800.00
245,4880.00
246,4800.00
247,4800.00
248,4800.00
249,4800.00
250,4800.00
251,4800.00
252,4800.00
253,4880.00
254,4880.00
255,4800.00
256,4800.00
257,4800.00
258,4880.00
259,4800.00
260,4880.00
261,4880.00
262,4800.00
263,4800.00
264,4800.00
265,4800.00
266,4800.00
267,4800.00
268,4800.00
269,4800.00
270,4800.00
271,4800.00
272,4720.00
273,4800.00
274,4720.00
275,4800.00
276,4800.00
277,4800.00
278,4800.00
279,4800.00
280,4800.00
281,4800.00
282,4800.00
283,4800.00
284,4800.00
285,4800.00
286,4800.00
287,4800.00
288,4800.00
289,4800.00
290,4800.00
291,4800.00
292,4800.00
293,4880.00
294,4800.00
295,4800.00
296,4800.00
297,4800.00
298,4880.00
299,4800.00
300,4800.00
301,4800.00
302,4800.00
303,4800.00
304,4800.00
305,4800.00
306,4800.00
307,4880.00
308,4800.00
309,4800.00
310,4800.00
311,4880.00
312,4800.00
313,4720.00
314,4800.00
315,4800.00
316,4800.00
317,4800.00
318,4720.00
319,4800.00
320,4880.00
321,4800.00
322,4800.00
323,4720.00
324,4800.00
325,4800.00
326,4800.00
327,4800.00
328,4800.00
329,4800.00
330,4800.00
331,4800.00
332,4800.00
333,4800.00
334,4800.00
335,4800.00
336,4880.00
337,4800.00
338,4800.00
339,4800.00
340,4800.00
341,4800.00
342,4800.00
343,4800.00
344,4720.00
345,4800.00
346,4800.00
347,4800.00
348,4800.00
349,4800.00
350,4880.00
351,4800.00
352,4800.00
353,4800.00
354,4800.00
355,4800.00
356,4800.00
357,4800.00
358,4720.00
359,4800.00
360,4800.00
361,4880.00
362,4800.00
363,4880.00
364,4800.00
365,4800.00
366,4800.00
367,4800.00
368,4800.00
369,4880.00
370,4880.00
371,4800.00
372,4800.00
373,4800.00
374,4800.00
375,4800.00
376,4800.00
377,4800.00
378,4800.00
379,4800.00
380,4880.00
381,4800.00
382,4800.00
383,4800.00
384,4800.00
385,4800.00
386,4800.00
387,4800.00
388,4800.00
389,4720.00
390,4800.00
391,4800.00
392,4800.00
393,4800.00
394,4720.00
395,4800.00
396,4800.00
397,4800.00
398,4800.00
399,4800.00
400,4800.00
401,4800.00
402,4800.00
403,4800.00
404,4800.00
405,4800.00
406,4800.00
407,4800.00
408,4880.00
409,4800.00
410,4800.00
411,4800.00
412,4800.00
413,4800.00
414,4800.00
415,4800.00
416,4800.00
417,4800.00
418,4800.00
419,4800.00
420,4880.00
421,4800.00
422,4800.00
423,4800.00
424,4800.00
425,4800.00
426,4800.00
427,4800.00
428,4800.00
429,4720.00
430,4800.00
431,4800.00
432,4720.00
433,4800.00
434,4800.00
435,4800.00
436,4800.00
437,4800.00
438,4800.00
439,4800.00
440,4880.00
441,4880.00
442,4800.00
443,4800.00
444,4800.00
445,4800.00
446,4800.00
447,4800.00
448,4800.00
449,4800.00
450,4800.00
451,4800.00
452,4800.00
453,4880.00
454,4800.00
455,4800.00
456,4800.00
457,4880.00
458,4800.00
459,4800.00
460,4800.00
461,4800.00
462,4880.00
463,4800.00
464,4800.00
465,4800.00
466,4800.00
467,4720.00
468,4720.00
469,4800.00
470,4720.00
471,4800.00
472,4800.00
473,4880.00
474,4800.00
475,4800.00
476,4800.00
477,4800.00
478,4800.00
479,4720.00
480,4800.00
481,4800.00
482,4720.00
483,4800.00
484,4800.00
485,4800.00
486,4880.00
487,4800.00
488,4800.00
489,4800.00
490,4800.00
491,4800.00
492,4880.00
493,4800.00
494,4800.00
495,4800.00
496,4800.00
497,4880.00
498,4800.00
499,4800.00
500,4800.00
501,4800.00
502,4800.00
503,4800.00
504,4880.00
505,4800.00
506,4880.00
507,4800.00
508,4800.00
509,4800.00
510,4800.00
511,4800.00
512,4800.00
513,4800.00
514,4800.00
515,4800.00
516,4800.00
517,4800.00
518,4800.00
519,4800.00
520,4800.00
521,4800.00
522,4880.00
523,4800.00
524,4880.00
525,4800.00
526,4720.00
527,4800.00
528,4880.00
529,4800.00
530,4800.00
531,4800.00
532,4800.00
533,4720.00
534,4800.00
535,4800.00
536,4800.00
537,4880.00
538,4800.00
539,4800.00
540,4800.00
541,4800.00
542,4800.00
543,4800.00
544,4800.00
545,4800.00
546,4800.00
547,4800.00
548,4800.00
549,4800.00
550,4800.00
551,4800.00
552,4800.00
553,4720.00
554,4800.00
555,4720.00
556,4800.00
557,4800.00
558,4800.00
559,4800.00
560,4800.00
561,4800.00
562,4800.00
563,4800.00
564,4800.00
565,4800.00
566,4800.00
567,4800.00
568,4880.00
569,4800.00
570,4800.00
571,4800.00
572,4800.00
573,4800.00
574,4800.00
575,4800.00
576,4800.00
577,4800.00
578,4800.00
579,4800.00
580,4800.00
581,4800.00
582,4880.00
583,4800.00
584,4880.00
585,4800.00
586,4800.00
587,4800.00
588,4800.00
589,4800.00
590,4800.00
591,4800.00
592,4800.00
593,4800.00
594,4960.00
595,4720.00
596,4800.00
597,4800.00
598,4800.00
599,4800.00
600,4800.00
601,4800.00
602,4800.00
603,4800.00
604,4800.00
605,4800.00
606,4800.00
607,4800.00
608,4800.00
609,4800.00
610,4800.00
611,4800.00
612,4800.00
613,4800.00
614,4800.00
615,4800.00
616,4800.00
617,4800.00
618,4800.00
619,4800.00
620,4800.00
621,4800.00
622,4800.00
623,4800.00
624,4800.00
625,4800.00
626,4800.00
627,4800.00
628,4800.00
629,4800.00
630,4800.00
631,4640.00
632,4800.00
633,4800.00
634,4800.00
635,4800.00
636,4800.00
637,4800.00
638,4800.00
639,4800.00
640,4800.00
641,4880.00
642,4800.00
643,4800.00
644,4800.00
645,4720.00
646,4800.00
647,4800.00
648,4800.00
649,4800.00
650,4800.00
651,4800.00
652,4880.00
653,4800.00
654,4800.00
655,4800.00
656,4800.00
657,4800.00
658,4800.00
659,4800.00
660,4800.00
661,4800.00
662,4880.00
663,4800.00
664,4800.00
665,4800.00
666,4800.00
667,4800.00
668,4800.00
669,4800.00
670,4800.00
671,4800.00
672,4800.00
673,4800.00
674,4800.00
675,4800.00
676,4800.00
677,4880.00
678,4800.00
679,4800.00
680,4800.00
681,4800.00
682,4880.00
683,4800.00
684,4800.00
685,4800.00
686,4880.00
687,4800.00
688,4800.00
689,4800.00
690,4800.00
691,4800.00
692,4800.00
693,4800.00
694,4800.00
695,4800.00
696,4800.00
697,4800.00
698,4800.00
699,4800.00
700,4800.00
701,4880.00
702,4800.00
703,4800.00
704,4880.00
705,4880.00
706,4800.00
707,4800.00
708,4800.00
709,4800.00
710,4720.00
711,4800.00
712,4800.00
713,4800.00
714,4800.00
715,4800.00
716,4800.00
717,4800.00
718,4800.00
719,4800.00
720,4800.00
721,4800.00
722,4800.00
723,4800.00
724,4880.00
725,4800.00
726,4800.00
727,4800.00
728,4800.00
729,4800.00
730,4800.00
731,4800.00
732,4880.00
733,4800.00
734,4800.00
735,4880.00
736,4800.00
737,4800.00
738,4800.00
739,4800.00
740,4800.00
741,4800.00
742,4800.00
743,4800.00
744,4720.00
745,4800.00
746,4800.00
747,4800.00
748,4800.00
749,4800.00
750,4800.00
751,4800.00
752,4800.00
753,4800.00
754,4800.00
755,4800.00
756,4800.00
757,4800.00
758,4800.00
759,4800.00
760,4800.00
761,4800.00
762,4880.00
763,4800.00
764,4800.00
765,4800.00
766,4800.00
767,4800.00
768,4800.00
769,4880.00
770,4800.00
771,4800.00
772,4800.00
773,4800.00
774,4800.00
775,4720.00
776,4720.00
777,4880.00
778,4720.00
779,4880.00
780,4800.00
781,4880.00
782,4800.00
783,4800.00
784,4880.00
785,4720.00
786,4800.00
787,4800.00
788,4800.00
789,4800.00
790,4800.00
791,4800.00
792,4800.00
793,4800.00
794,4800.00
795,4800.00
796,4800.00
797,4800.00
798,4800.00
799,4800.00
800,4880.00
801,4800.00
802,4800.00
803,4800.00
804,4800.00
805,4800.00
806,4800.00
807,4800.00
808,4960.00
809,4720.00
810,4800.00
811,4800.00
812,4800.00
813,4800.00
814,4800.00
815,4880.00
816,4800.00
817,4800.00
818,4720.00
819,4880.00
820,4800.00
821,4800.00
822,4880.00
823,4800.00
824,4800.00
825,4800.00
826,4800.00
827,4800.00
828,4800.00
829,4800.00
830,4800.00
831,4800.00
832,4800.00
833,4800.00
834,4880.00
835,4800.00
836,4800.00
837,4800.00
838,4880.00
839,4800.00
840,4800.00
841,4800.00
842,4800.00
843,4800.00
844,4800.00
845,4800.00
846,4800.00
847,4800.00
848,4800.00
849,4800.00
850,4800.00
851,4800.00
852,4800.00
853,4800.00
854,4800.00
855,4800.00
856,4880.00
857,4800.00
858,4800.00
859,4800.00
860,4800.00
861,4720.00
862,4800.00
863,4800.00
864,4800.00
865,4800.00
866,4800.00
867,4800.00
868,4800.00
869,4800.00
870,4800.00
871,4800.00
872,4800.00
873,4800.00
874,4800.00
875,4800.00
876,4800.00
877,4800.00
878,4880.00
879,4800.00
880,4800.00
881,4800.00
882,4800.00
883,4800.00
884,4880.00
885,4800.00
886,4800.00
887,4800.00
888,4800.00
889,4800.00
890,4800.00
891,4800.00
892,4800.00
893,4800.00
894,4880.00
895,4720.00
896,4800.00
897,4800.00
898,4800.00
899,4880.00
900,4800.00
901,4800.00
902,4800.00
903,4800.00
904,4800.00
905,4720.00
906,4800.00
907,4800.00
908,4800.00
909,4720.00
910,4880.00
911,4800.00
912,4880.00
913,4800.00
914,4880.00
915,4880.00
916,4800.00
917,4800.00
918,4800.00
919,4800.00
920,4800.00
921,4720.00
922,4800.00
923,4800.00
924,4800.00
925,4880.00
926,4800.00
927,4800.00
928,4880.00
929,4800.00
930,4800.00
931,4800.00
932,4800.00
933,4800.00
934,4800.00
935,4880.00
936,4800.00
937,4800.00
938,4800.00
939,4800.00
940,4800.00
941,4880.00
942,4800.00
943,4800.00
944,4800.00
945,4800.00
946,4880.00
947,4800.00
948,4800.00
949,4800.00
950,4800.00
951,4800.00
952,4800.00
953,4800.00
954,4800.00
955,4800.00
956,4800.00
957,4800.00
958,4800.00
959,4800.00
960,4800.00
961,4800.00
962,4800.00
963,4800.00
964,4800.00
965,4800.00
966,4800.00
967,4800.00
968,4800.00
969,4800.00
970,4800.00
971,4800.00
972,4800.00
973,4720.00
974,4800.00
975,4800.00
976,4800.00
977,4880.00
978,4800.00
979,4800.00
980,4720.00
981,4800.00
982,4800.00
983,4880.00
984,4800.00
985,4800.00
986,4800.00
987,4720.00
988,4720.00
989,4880.00
990,4800.00
991,4800.00
992,4800.00
993,4800.00
994,4800.00
995,4800.00
996,4800.00
997,4800.00
998,4800.00
999,4800.00
1000,4880.00
1001,4800.00
1002,4720.00
1003,4800.00
1004,4880.00
1005,4800.00
1006,4800.00
1007,4800.00
1008,4800.00
1009,4800.00
1010,4800.00
1011,4800.00
1012,4800.00
1013,4800.00
1014,4800.00
1015,4800.00
1016,4800.00
1017,4800.00
1018,4640.00
1019,4800.00
1020,4800.00
1021,4800.00
1022,4800.00
1023,4800.00
1024,4800.00
1025,4800.00
1026,4800.00
1027,4800.00
1028,4800.00
1029,4800.00
1030,4800.00
1031,4800.00
1032,4800.00
1033,4800.00
1034,4800.00
1035,4800.00
1036,4880.00
1037,4800.00
1038,4800.00
1039,4800.00
1040,4800.00
1041,4800.00
1042,4800.00
1043,4800.00
1044,4800.00
1045,4800.00
1046,4800.00
1047,4880.00
1048,4800.00
1049,4800.00
1050,4800.00
1051,4800.00
1052,4800.00
1053,4800.00
1054,4800.00
1055,4800.00
1056,4800.00
1057,4720.00
1058,4800.00
1059,4720.00
1060,4800.00
1061,4800.00
1062,4800.00
1063,4880.00
1064,4800.00
1065,4800.00
1066,4800.00
1067,4800.00
1068,4880.00
1069,4800.00
1070,4800.00
1071,4800.00
1072,4800.00
1073,4800.00
1074,4800.00
1075,4800.00
1076,4800.00
1077,4880.00
1078,4800.00
1079,4880.00
1080,4880.00
1081,4880.00
1082,4880.00
1083,4800.00
1084,4800.00
1085,4800.00
1086,4800.00
1087,4800.00
1088,4800.00
1089,4800.00
1090,0.00
1091,160.00
1092,80.00
1093,4800.00
1094,4800.00
1095,4800.00
1096,4800.00
1097,4800.00
1098,4800.00
1099,4800.00
1100,4880.00
1101,4800.00
1102,4800.00
1103,4800.00
1104,0.00
1105,160.00
1106,0.00
1107,4800.00
1108,4800.00
1109,4880.00
1110,4880.00
1111,4800.00
1112,4800.00
1113,4720.00
1114,4800.00
1115,4880.00
1116,4960.00
1117,4800.00
1118,4800.00
1119,4800.00
1120,4960.00
1121,4880.00
1122,4800.00
1123,4800.00
1124,4800.00
1125,4800.00
1126,4800.00
1127,4800.00
1128,4800.00
1129,4880.00
1130,4800.00
1131,4800.00
1132,4800.00
1133,4800.00
1134,160.00
1135,0.00
1136,4800.00
1137,4800.00
1138,4800.00
1139,4800.00
1140,4880.00
1141,4800.00
1142,0.00
1143,80.00
1144,4800.00
1145,4800.00
1146,4800.00
1147,4800.00
1148,4800.00
1149,4800.00
1150,4800.00
1151,4880.00
1152,0.00
1153,80.00
1154,4720.00
1155,4800.00
1156,4800.00
1157,4800.00
1158,4800.00
1159,4720.00
1160,4800.00
1161,4800.00
1162,4800.00
1163,160.00
1164,0.00
1165,0.00
1166,4800.00
1167,4800.00
1168,4800.00
1169,4800.00
1170,4800.00
1171,4800.00
1172,0.00
1173,0.00
1174,4640.00
1175,4720.00
1176,4800.00
1177,4720.00
1178,4800.00
1179,4800.00
1180,4800.00
1181,0.00
1182,80.00
1183,80.00
1184,4800.00
1185,4800.00
1186,4800.00
1187,4880.00
1188,4800.00
1189,160.00
1190,0.00
1191,4800.00
1192,4800.00
1193,4880.00
1194,4880.00
1195,4880.00
1196,4880.00
1197,4800.00
1198,0.00
1199,160.00
1200,4800.00
1201,4800.00
1202,4880.00
1203,160.00
1204,80.00
1205,80.00
1206,4800.00
1207,4800.00
1208,4800.00
1209,4800.00
1210,4800.00
1211,4800.00
1212,4800.00
1213,4800.00
1214,4880.00
1215,4800.00
1216,4800.00
1217,4800.00
1218,4800.00
1219,4800.00
1220,4800.00
1221,0.00
1222,80.00
1223,0.00
1224,4800.00
1225,4880.00
1226,4800.00
1227,4720.00
1228,4800.00
1229,4880.00
1230,4800.00
1231,80.00
1232,0.00
1233,3920.00
1234,4800.00
1235,4880.00
1236,4800.00
1237,4800.00
1238,4800.00
1239,4800.00
1240,4800.00
1241,4800.00
1242,4800.00
1243,4800.00
1244,4800.00
1245,4800.00
1246,4800.00
1247,4800.00
1248,4800.00
1249,4800.00
1250,4800.00
1251,4800.00
1252,4800.00
1253,4800.00
1254,80.00
1255,80.00
1256,4800.00
1257,4880.00
1258,4800.00
1259,4800.00
1260,4880.00
1261,4800.00
1262,4800.00
1263,4800.00
1264,4800.00
1265,4800.00
1266,4720.00
1267,4800.00
1268,4800.00
1269,4800.00
1270,4800.00
1271,80.00
1272,0.00
1273,4880.00
1274,4880.00
1275,4800.00
1276,4720.00
1277,4800.00
1278,0.00
1279,0.00
1280,2080.00
1281,4880.00
1282,4880.00
1283,4720.00
1284,0.00
1285,80.00
1286,4800.00
1287,4800.00
1288,4800.00
1289,4800.00
1290,4800.00
1291,4800.00
1292,4800.00
1293,4800.00
1294,4800.00
1295,4800.00
1296,4800.00
1297,4800.00
1298,4800.00
1299,4800.00
1300,4800.00
1301,4800.00
1302,4800.00
1303,4800.00
1304,4800.00
1305,4800.00
1306,4800.00
1307,4800.00
1308,4880.00
1309,4800.00
1310,4800.00
1311,4800.00
1312,4800.00
1313,4800.00
1314,4800.00
1315,0.00
1316,0.00
1317,80.00
1318,4880.00
1319,4800.00
1320,4720.00
1321,4800.00
1322,4800.00
1323,4800.00
1324,4800.00
1325,4800.00
1326,4800.00
1327,4800.00
1328,4800.00
1329,4320.00
1330,0.00
1331,80.00
1332,4800.00
1333,4800.00
1334,4800.00
1335,4800.00
1336,0.00
1337,160.00
1338,4880.00
1339,4800.00
1340,80.00
1341,0.00
1342,4800.00
1343,4800.00
1344,4800.00
1345,4800.00
1346,4800.00
1347,4800.00
1348,4880.00
1349,4800.00
1350,4800.00
1351,4800.00
1352,4800.00
1353,4800.00
1354,4800.00
1355,4800.00
1356,4800.00
1357,4800.00
1358,4800.00
1359,160.00
1360,80.00
1361,0.00
1362,4800.00
1363,4880.00
1364,4800.00
1365,0.00
1366,0.00
1367,4880.00
1368,4800.00
1369,4800.00
1370,4800.00
1371,0.00
1372,0.00
1373,3680.00
1374,4800.00
1375,4800.00
1376,4800.00
1377,4800.00
1378,80.00
1379,0.00
1380,0.00
1381,4800.00
1382,4800.00
1383,4880.00
1384,4800.00
1385,4800.00
1386,4800.00
1387,4800.00
1388,4800.00
1389,4800.00
1390,4800.00
1391,4800.00
1392,4800.00
1393,4800.00
1394,4800.00
1395,4720.00
1396,4800.00
1397,4720.00
1398,0.00
1399,80.00
1400,3680.00
1401,4800.00
1402,4800.00
1403,4800.00
1404,4800.00
1405,4800.00
1406,4800.00
1407,4800.00
1408,4800.00
1409,4800.00
1410,4800.00
1411,4880.00
1412,4800.00
1413,4880.00
1414,80.00
1415,0.00
1416,0.00
1417,4800.00
1418,4800.00
1419,4800.00
1420,4800.00
1421,4800.00
1422,4800.00
1423,4800.00
1424,4800.00
1425,4800.00
1426,4800.00
1427,4800.00
1428,4800.00
1429,4800.00
1430,4880.00
1431,4800.00
1432,4880.00
1433,4800.00
1434,4800.00
1435,4800.00
1436,80.00
1437,0.00
1438,4000.00
1439,4880.00
1440,4800.00
1441,4800.00
1442,4800.00
1443,4800.00
1444,4880.00
1445,0.00
1446,160.00
1447,4880.00
1448,4800.00
1449,4800.00
1450,4800.00
1451,4800.00
1452,4800.00
1453,4800.00
1454,160.00
1455,0.00
1456,0.00
1457,4800.00
1458,4800.00
1459,4800.00
1460,4800.00
1461,160.00
1462,80.00
1463,4320.00
1464,4800.00
1465,4800.00
1466,4800.00
1467,4800.00
1468,4800.00
1469,4800.00
1470,4800.00
1471,4880.00
1472,80.00
1473,160.00
1474,4800.00
1475,4880.00
1476,4880.00
1477,4880.00
1478,4880.00
1479,4800.00
1480,4800.00
1481,0.00
1482,80.00
1483,4800.00
1484,4800.00
1485,4800.00
1486,4720.00
1487,4800.00
1488,0.00
1489,80.00
1490,880.00
1491,4800.00
1492,4800.00
1493,4800.00
1494,4880.00
1495,0.00
1496,0.00
1497,160.00
1498,4800.00
1499,4880.00
1500,4800.00
1501,4800.00
1502,4800.00
1503,4800.00
1504,4800.00
1505,4800.00
1506,4800.00
1507,4800.00
1508,4800.00
1509,4880.00
1510,4800.00
1511,4800.00
1512,4800.00
1513,0.00
1514,80.00
1515,80.00
1516,4800.00
1517,4800.00
1518,4800.00
1519,4800.00
1520,4800.00
1521,4800.00
1522,4800.00
1523,4800.00
1524,0.00
1525,0.00
1526,160.00
1527,4880.00
1528,4800.00
1529,4800.00
1530,4800.00
1531,4800.00
1532,-80.00
1533,80.00
1534,4640.00
1535,4880.00
1536,4880.00
1537,4800.00
1538,4800.00
1539,4800.00
1540,4800.00
1541,4800.00
1542,4800.00
1543,4880.00
1544,4880.00
1545,160.00
1546,160.00
1547,4800.00
1548,4800.00
1549,4800.00
1550,4800.00
1551,4800.00
1552,4800.00
1553,4800.00
1554,4800.00
1555,4800.00
1556,4880.00
1557,4880.00
1558,4800.00
1559,4800.00
1560,4800.00
1561,4800.00
1562,4800.00
1563,4800.00
1564,4800.00
1565,4800.00
1566,4800.00
1567,4800.00
1568,4800.00
1569,4800.00
1570,4800.00
1571,4800.00
1572,4720.00
1573,0.00
1574,0.00
1575,4800.00
1576,4800.00
1577,4800.00
1578,4800.00
1579,4800.00
1580,4800.00
1581,4800.00
1582,4800.00
1583,80.00
1584,0.00
1585,4800.00
1586,4880.00
1587,4800.00
1588,4800.00
1589,4800.00
1590,4800.00
1591,4720.00
1592,4800.00
1593,4800.00
1594,4800.00
1595,4800.00
1596,0.00
1597,80.00
1598,80.00
1599,4880.00
1600,4800.00
1601,4800.00
1602,0.00
1603,0.00
1604,4320.00
1605,4800.00
1606,4800.00
1607,4880.00
1608,4800.00
1609,0.00
1610,80.00
1611,80.00
1612,4800.00
1613,4800.00
1614,4800.00
1615,4800.00
1616,4800.00
1617,4800.00
1618,4800.00
1619,4800.00
1620,4880.00
1621,4800.00
1622,4800.00
1623,4800.00
1624,4800.00
1625,4800.00
1626,4800.00
1627,0.00
1628,160.00
1629,80.00
1630,4800.00
1631,4800.00
1632,4880.00
1633,4800.00
1634,4800.00
1635,3040.00
1636,160.00
1637,80.00
1638,4800.00
1639,4800.00
1640,4800.00
1641,4800.00
1642,4800.00
1643,4800.00
1644,0.00
1645,0.00
1646,0.00
1647,4800.00
1648,4800.00
1649,4800.00
1650,4800.00
1651,4800.00
1652,4800.00
1653,4880.00
1654,4880.00
1655,0.00
1656,80.00
1657,4800.00
1658,4800.00
1659,4800.00
1660,4800.00
1661,4800.00
1662,4800.00
1663,4800.00
1664,4800.00
1665,4800.00
1666,4800.00
1667,4800.00
1668,4800.00
1669,4800.00
1670,4800.00
1671,4800.00
1672,4800.00
1673,4880.00
1674,4800.00
1675,4800.00
1676,4880.00
1677,4800.00
1678,4800.00
1679,4800.00
1680,4800.00
1681,4800.00
1682,4800.00
1683,-80.00
1684,0.00
1685,0.00
1686,4800.00
1687,4800.00
1688,4960.00
1689,4800.00
1690,4800.00
1691,4800.00
1692,4880.00
1693,4800.00
1694,4800.00
1695,4880.00
1696,4800.00
1697,4800.00
1698,160.00
1699,80.00
1700,4800.00
1701,4800.00
1702,4800.00
1703,4800.00
1704,4800.00
1705,0.00
1706,0.00
1707,4800.00
1708,4800.00
1709,4880.00
1710,4880.00
1711,4800.00
1712,4800.00
1713,4800.00
1714,4800.00
1715,4800.00
1716,4800.00
1717,4800.00
1718,4720.00
1719,4800.00
1720,4720.00
1721,4800.00
1722,4800.00
1723,4800.00
1724,4720.00
1725,4800.00
1726,4800.00
1727,4800.00
1728,4800.00
1729,4880.00
1730,4800.00
1731,4800.00
1732,4800.00
1733,4800.00
1734,4800.00
1735,0.00
1736,0.00
1737,160.00
1738,4800.00
1739,4800.00
1740,4800.00
1741,4800.00
1742,4800.00
1743,4720.00
1744,4880.00
1745,4800.00
1746,4720.00
1747,4800.00
1748,80.00
1749,80.00
1750,4800.00
1751,4800.00
1752,4800.00
1753,4800.00
1754,4800.00
1755,4720.00
1756,4800.00
1757,4800.00
1758,4800.00
1759,4800.00
1760,4800.00
1761,4720.00
1762,4800.00
1763,4800.00
1764,4880.00
1765,4800.00
1766,4800.00
1767,4800.00
1768,0.00
1769,0.00
1770,4880.00
1771,4800.00
1772,4800.00
1773,4720.00
1774,4800.00
1775,4880.00
1776,4880.00
1777,4880.00
1778,4800.00
1779,4800.00
1780,4800.00
1781,4800.00
1782,4800.00
1783,4800.00
1784,4800.00
1785,4800.00
1786,4800.00
1787,80.00
1788,160.00
1789,4800.00
1790,4800.00
1791,4720.00
1792,4800.00
1793,4800.00
1794,4720.00
1795,4800.00
1796,4800.00
1797,4800.00
1798,4800.00
1799,4800.00
1800,4800.00
1801,4800.00
1802,80.00
1803,80.00
1804,4800.00
1805,4800.00
1806,4800.00
1807,4800.00
1808,4800.00
1809,0.00
1810,0.00
1811,4880.00
1812,4800.00
1813,4800.00
1814,4720.00
1815,4800.00
1816,4800.00
1817,4800.00
1818,4800.00
1819,4800.00
1820,4720.00
1821,4800.00
1822,4800.00
1823,4880.00
1824,4800.00
1825,4800.00
1826,4800.00
1827,4800.00
1828,4800.00
1829,4800.00
1830,80.00
1831,80.00
1832,4560.00
1833,4800.00
1834,4800.00
1835,4800.00
1836,4720.00
1837,4720.00
1838,4800.00
1839,4800.00
1840,4800.00
1841,4800.00
1842,4800.00
1843,4800.00
1844,4800.00
1845,4800.00
1846,4800.00
1847,4800.00
1848,0.00
1849,0.00
1850,4880.00
1851,4800.00
1852,4800.00
1853,4800.00
1854,4800.00
1855,80.00
1856,160.00
1857,4800.00
1858,4800.00
1859,4880.00
1860,4800.00
1861,4800.00
1862,4800.00
1863,80.00
1864,160.00
1865,4800.00
1866,4800.00
1867,4800.00
1868,4800.00
1869,4800.00
1870,4800.00
1871,4800.00
1872,4800.00
1873,4800.00
1874,4800.00
1875,4720.00
1876,4800.00
1877,4800.00
1878,4800.00
1879,4640.00
1880,4720.00
1881,4800.00
1882,0.00
1883,160.00
1884,4800.00
1885,4800.00
1886,4800.00
1887,4880.00
1888,4800.00
1889,4800.00
1890,4880.00
1891,4800.00
1892,4800.00
1893,4800.00
1894,4880.00
1895,4800.00
1896,4800.00
1897,4800.00
1898,4800.00
1899,4800.00
1900,4800.00
1901,4800.00
1902,4800.00
1903,80.00
1904,0.00
1905,3680.00
1906,4800.00
1907,4800.00
1908,4800.00
1909,4800.00
1910,80.00
1911,80.00
1912,4800.00
1913,4880.00
1914,4720.00
1915,4720.00
1916,4800.00
1917,4800.00
1918,4800.00
1919,4800.00
1920,4800.00
1921,4880.00
1922,4720.00
1923,4800.00
1924,4720.00
1925,4800.00
1926,4800.00
1927,4800.00
1928,4800.00
1929,4800.00
1930,4800.00
1931,4800.00
1932,4800.00
1933,4800.00
1934,4800.00
1935,4800.00
1936,4800.00
1937,0.00
1938,80.00
1939,4800.00
1940,4800.00
1941,4880.00
1942,4800.00
1943,4800.00
1944,4800.00
1945,4800.00
1946,0.00
1947,0.00
1948,4800.00
1949,4800.00
1950,4800.00
1951,4800.00
1952,80.00
1953,160.00
1954,80.00
1955,4800.00
1956,4800.00
1957,4720.00
1958,4800.00
1959,4880.00
1960,4800.00
1961,4720.00
1962,4800.00
1963,4800.00
1964,4800.00
1965,4800.00
1966,4800.00
1967,4800.00
1968,0.00
1969,0.00
1970,4800.00
1971,4880.00
1972,4880.00
1973,4800.00
1974,4800.00
1975,4880.00
1976,4800.00
1977,4800.00
1978,4800.00
1979,4800.00
1980,4800.00
1981,4640.00
1982,4800.00
1983,4800.00
1984,4720.00
1985,4800.00
1986,4800.00
1987,4800.00
1988,4800.00
1989,4800.00
1990,0.00
1991,0.00
1992,160.00
1993,4800.00
1994,4800.00
1995,4880.00
1996,4800.00
1997,4800.00
1998,4800.00
1999,4800.00
2000,4800.00
2001,4800.00
2002,0.00
2003,0.00
2004,4800.00
2005,4800.00
2006,4880.00
2007,4800.00
2008,4800.00
2009,4800.00
2010,4800.00
2011,4800.00
2012,4800.00
2013,4880.00
2014,4800.00
2015,4800.00
2016,4800.00
2017,4800.00
2018,4800.00
2019,4800.00
2020,4800.00
2021,4800.00
2022,4880.00
2023,4800.00
2024,80.00
2025,160.00
2026,1680.00
2027,4800.00
2028,4880.00
2029,4800.00
2030,4800.00
2031,4800.00
2032,4800.00
2033,400.00
2034,80.00
2035,0.00
2036,4800.00
2037,4800.00
2038,4720.00
2039,4800.00
2040,4800.00
2041,4800.00
2042,4880.00
2043,4800.00
2044,80.00
2045,0.00
2046,0.00
2047,4800.00
2048,4880.00
2049,4800.00
2050,4800.00
2051,4800.00
2052,4880.00
2053,4800.00
2054,4800.00
2055,4800.00
2056,4800.00
2057,4800.00
2058,0.00
2059,0.00
2060,80.00
2061,4800.00
2062,4800.00
2063,4800.00
2064,4800.00
2065,80.00
2066,0.00
2067,0.00
2068,4800.00
2069,4720.00
2070,4800.00
2071,4800.00
2072,4800.00
2073,0.00
2074,160.00
2075,80.00
2076,4800.00
2077,4800.00
2078,4800.00
2079,4720.00
2080,4800.00
2081,80.00
2082,0.00
2083,4800.00
2084,4800.00
2085,4800.00
2086,4800.00
2087,4800.00
2088,4800.00
2089,4800.00
2090,4720.00
2091,4800.00
2092,4880.00
2093,4800.00
2094,4800.00
2095,4800.00
2096,4800.00
2097,4800.00
2098,4800.00
2099,0.00
2100,0.00
2101,4800.00
2102,4800.00
2103,4800.00
2104,4800.00
2105,4800.00
2106,4800.00
2107,4880.00
2108,4800.00
2109,4800.00
2110,4800.00
2111,4800.00
2112,4800.00
2113,4800.00
2114,4800.00
2115,4880.00
2116,720.00
2117,80.00
2118,80.00
2119,4800.00
2120,4800.00
2121,4800.00
2122,4800.00
2123,4800.00
2124,4800.00
2125,0.00
2126,0.00
2127,80.00
2128,4800.00
2129,4880.00
2130,4800.00
2131,4800.00
2132,0.00
2133,80.00
2134,4800.00
2135,4800.00
2136,4800.00
2137,4800.00
2138,4800.00
2139,4880.00
2140,4800.00
2141,0.00
2142,80.00
2143,4880.00
2144,4800.00
2145,4800.00
2146,4800.00
2147,4800.00
2148,4720.00
2149,4800.00
2150,4800.00
2151,4800.00
2152,4800.00
2153,4800.00
2154,4800.00
2155,4800.00
2156,4720.00
2157,4800.00
2158,4800.00
2159,4800.00
2160,0.00
2161,80.00
2162,4800.00
2163,4880.00
2164,4880.00
2165,4800.00
2166,4800.00
2167,4800.00
2168,4800.00
2169,0.00
2170,80.00
2171,4880.00
2172,4880.00
2173,4800.00
2174,4800.00
2175,4800.00
2176,4720.00
2177,4800.00
2178,160.00
2179,0.00
2180,4800.00
2181,4800.00
2182,4800.00
2183,4800.00
2184,4800.00
2185,4800.00
2186,4800.00
2187,4800.00
2188,4800.00
2189,4800.00
2190,4800.00
2191,4800.00
2192,4880.00
2193,4720.00
2194,4800.00
2195,4800.00
2196,4800.00
2197,4800.00
2198,4800.00
2199,80.00
2200,80.00
2201,4800.00
2202,4800.00
2203,4800.00
2204,4720.00
2205,4800.00
2206,-400.00
2207,0.00
2208,160.00
2209,4800.00
2210,4880.00
2211,4800.00
2212,4800.00
2213,4800.00
2214,4800.00
2215,4800.00
2216,4800.00
2217,4800.00
2218,4800.00
2219,4800.00
2220,4720.00
2221,4800.00
2222,4800.00
2223,4800.00
2224,0.00
2225,0.00
2226,0.00
2227,4800.00
2228,4800.00
2229,4800.00
2230,4800.00
2231,4800.00
2232,4800.00
2233,4800.00
2234,0.00
2235,0.00
2236,4800.00
2237,4800.00
2238,4800.00
2239,4800.00
2240,4800.00
2241,4800.00
2242,4800.00
2243,0.00
2244,160.00
2245,0.00
2246,4880.00
2247,4880.00
2248,4800.00
2249,4800.00
2250,0.00
2251,80.00
2252,4800.00
2253,4800.00
2254,4800.00
2255,4800.00
2256,4800.00
2257,4800.00
2258,4800.00
2259,4800.00
2260,4720.00
2261,4800.00
2262,4800.00
2263,0.00
2264,80.00
2265,160.00
2266,4800.00
2267,4800.00
2268,4800.00
2269,4880.00
2270,4800.00
2271,4800.00
2272,4880.00
2273,4800.00
2274,4800.00
2275,4800.00
2276,4720.00
2277,0.00
2278,80.00
2279,4800.00
2280,4880.00
2281,4800.00
2282,4800.00
2283,4880.00
2284,4800.00
2285,4880.00
2286,4880.00
2287,4800.00
2288,4800.00
2289,4800.00
2290,4800.00
2291,4800.00
2292,4800.00
2293,4800.00
2294,4720.00
2295,4800.00
2296,80.00
2297,160.00
2298,4720.00
2299,4880.00
2300,4800.00
2301,4720.00
2302,4800.00
2303,4800.00
2304,0.00
2305,80.00
2306,0.00
2307,4800.00
2308,4800.00
2309,4800.00
2310,4800.00
2311,4800.00
2312,4800.00
2313,4800.00
2314,0.00
2315,80.00
2316,320.00
2317,4800.00
2318,4800.00
2319,4800.00
2320,4800.00
2321,4800.00
2322,4800.00
2323,4800.00
2324,4800.00
2325,4800.00
2326,4800.00
2327,160.00
2328,0.00
2329,4800.00
2330,4800.00
2331,4800.00
2332,4800.00
2333,4800.00
2334,4800.00
2335,4800.00
2336,4800.00
2337,4800.00
2338,4800.00
2339,4800.00
2340,4800.00
2341,4720.00
2342,4880.00
2343,4800.00
2344,4800.00
2345,0.00
2346,0.00
2347,0.00
2348,4800.00
2349,4800.00
2350,4880.00
2351,4800.00
2352,4800.00
2353,4800.00
2354,4800.00
2355,4800.00
2356,4800.00
2357,4800.00
2358,4800.00
2359,4880.00
2360,4720.00
2361,4800.00
2362,4800.00
2363,4800.00
2364,4880.00
2365,160.00
2366,80.00
2367,4800.00
2368,4800.00
2369,4800.00
2370,4800.00
2371,0.00
2372,160.00
2373,1440.00
2374,4880.00
2375,4800.00
2376,4800.00
2377,4880.00
2378,80.00
2379,0.00
2380,160.00
2381,4800.00
2382,4800.00
2383,4800.00
2384,4800.00
2385,4880.00
2386,4800.00
2387,4800.00
2388,4880.00
2389,4800.00
2390,4800.00
2391,4800.00
2392,4720.00
2393,80.00
2394,0.00
2395,80.00
2396,4800.00
2397,4800.00
2398,4800.00
2399,4880.00
2400,0.00
2401,160.00
2402,4560.00
2403,4800.00
2404,4800.00
2405,4800.00
2406,4800.00
2407,80.00
2408,80.00
2409,4800.00
2410,4800.00
2411,4880.00
2412,4800.00
2413,4720.00
2414,4800.00
2415,80.00
2416,80.00
2417,4800.00
2418,4880.00
2419,4800.00
2420,4800.00
2421,4800.00
2422,0.00
2423,80.00
2424,80.00
2425,4800.00
2426,4800.00
2427,4800.00
2428,4800.00
2429,4800.00
2430,4800.00
2431,4800.00
2432,4800.00
2433,4800.00
2434,4800.00
2435,4800.00
2436,4880.00
2437,4800.00
2438,4880.00
2439,4800.00
2440,4800.00
2441,4880.00
2442,4880.00
2443,0.00
2444,80.00
2445,4880.00
2446,4800.00
2447,4800.00
2448,4800.00
2449,4800.00
2450,4800.00
2451,4800.00
2452,0.00
2453,160.00
2454,3840.00
2455,4880.00
2456,4800.00
2457,4800.00
2458,4800.00
2459,4800.00
2460,4880.00
2461,4880.00
2462,4800.00
2463,4800.00
2464,4800.00
2465,4800.00
2466,4800.00
2467,4800.00
2468,4880.00
2469,0.00
2470,160.00
2471,4800.00
2472,4800.00
2473,4800.00
2474,4800.00
2475,4800.00
2476,160.00
2477,160.00
2478,4880.00
2479,4880.00
2480,4800.00
2481,4800.00
2482,4800.00
2483,4800.00
2484,4800.00
2485,4800.00
2486,4800.00
2487,4800.00
2488,4800.00
2489,80.00
2490,0.00
2491,0.00
2492,4800.00
2493,4800.00
2494,4800.00
2495,4800.00
2496,4800.00
2497,4800.00
2498,4800.00
2499,4800.00
2500,4800.00
2501,4880.00
2502,4800.00
2503,4800.00
2504,4880.00
2505,4800.00
2506,4800.00
2507,4800.00
2508,4800.00
2509,4800.00
2510,4800.00
2511,4800.00
2512,4800.00
2513,4800.00
2514,0.00
2515,80.00
2516,0.00
2517,4880.00
2518,4880.00
2519,4800.00
2520,4800.00
2521,4800.00
2522,4800.00
2523,4800.00
2524,4800.00
2525,4800.00
2526,4720.00
2527,4800.00
2528,4800.00
2529,0.00
2530,0.00
2531,0.00
2532,4800.00
2533,4880.00
2534,4800.00
2535,4800.00
2536,4800.00
2537,4800.00
2538,4800.00
2539,80.00
2540,80.00
2541,4800.00
2542,4800.00
2543,4800.00
2544,4800.00
2545,4800.00
2546,4800.00
2547,4800.00
2548,4800.00
2549,4880.00
2550,4880.00
2551,4800.00
2552,4800.00
2553,4880.00
2554,4800.00
2555,4880.00
2556,4800.00
2557,4800.00
2558,4800.00
2559,0.00
2560,80.00
2561,4960.00
2562,4800.00
2563,4880.00
2564,4720.00
2565,4800.00
2566,4800.00
2567,80.00
2568,80.00
2569,80.00
2570,4800.00
2571,4880.00
2572,4800.00
2573,4800.00
2574,4880.00
2575,4800.00
2576,4800.00
2577,4800.00
2578,4800.00
2579,4880.00
2580,4800.00
2581,4720.00
2582,4800.00
2583,4800.00
2584,4800.00
2585,4800.00
2586,4800.00
2587,4800.00
2588,4800.00
2589,4800.00
2590,4800.00
2591,4880.00
2592,4800.00
2593,80.00
2594,80.00
2595,80.00
2596,4800.00
2597,4800.00
2598,4800.00
2599,4800.00
2600,4800.00
2601,4800.00
2602,4880.00
2603,4800.00
2604,4800.00
2605,4800.00
2606,4720.00
2607,4880.00
2608,4800.00
2609,4800.00
2610,4800.00
2611,4800.00
2612,4800.00
2613,4800.00
2614,4800.00
2615,4800.00
2616,4880.00
2617,4800.00
2618,4800.00
2619,4800.00
2620,4800.00
2621,4800.00
2622,4800.00
2623,4720.00
2624,160.00
2625,0.00
2626,4880.00
2627,4800.00
2628,4800.00
2629,4800.00
2630,4800.00
2631,80.00
2632,80.00
2633,4800.00
2634,4800.00
2635,4800.00
2636,4800.00
2637,4880.00
2638,4800.00
2639,4720.00
2640,4880.00
2641,4800.00
2642,4800.00
2643,4800.00
2644,4800.00
2645,4800.00
2646,4800.00
2647,4800.00
2648,4800.00
2649,4800.00
2650,4800.00
2651,4800.00
2652,4800.00
2653,4880.00
2654,4800.00
2655,4800.00
2656,4800.00
2657,4720.00
2658,4800.00
2659,4800.00
2660,4800.00
2661,4720.00
2662,4800.00
2663,4800.00
2664,4880.00
2665,4800.00
2666,4800.00
2667,4800.00
2668,4800.00
2669,4800.00
2670,4800.00
2671,4800.00
2672,4800.00
2673,4880.00
2674,4880.00
2675,4800.00
2676,4880.00
2677,4800.00
2678,4800.00
2679,4800.00
2680,4800.00
2681,4880.00
2682,4800.00
2683,4800.00
2684,4800.00
2685,4880.00
2686,4800.00
2687,4800.00
2688,4800.00
2689,0.00
2690,0.00
2691,0.00
2692,4800.00
2693,4800.00
2694,4800.00
2695,4800.00
2696,4800.00
2697,4800.00
2698,4800.00
2699,4800.00
2700,4720.00
2701,4800.00
2702,4800.00
2703,4720.00
2704,4800.00
2705,4800.00
2706,4800.00
2707,0.00
2708,80.00
2709,4800.00
2710,4720.00
2711,4720.00
2712,4800.00
2713,80.00
2714,80.00
2715,160.00
2716,4800.00
2717,4880.00
2718,4800.00
2719,4800.00
2720,4800.00
2721,0.00
2722,80.00
2723,0.00
2724,4800.00
2725,4800.00
2726,4800.00
2727,4800.00
2728,4800.00
2729,4800.00
2730,4800.00
2731,0.00
2732,80.00
2733,4800.00
2734,4800.00
2735,4800.00
2736,4800.00
2737,4800.00
2738,4720.00
2739,4800.00
2740,0.00
2741,0.00
2742,4800.00
2743,4800.00
2744,4800.00
2745,4800.00
2746,4800.00
2747,4800.00
2748,4800.00
2749,4800.00
2750,4880.00
2751,4800.00
2752,4880.00
2753,4800.00
2754,4800.00
2755,4800.00
2756,4800.00
2757,4800.00
2758,4800.00
2759,4880.00
2760,320.00
2761,80.00
2762,80.00
2763,4880.00
2764,4800.00
2765,4800.00
2766,4800.00
2767,4800.00
2768,4800.00
2769,4800.00
2770,4800.00
2771,4800.00
2772,4800.00
2773,0.00
2774,0.00
2775,4800.00
2776,4800.00
2777,4800.00
2778,4800.00
2779,4800.00
2780,4800.00
2781,4800.00
2782,4800.00
2783,4800.00
2784,4800.00
2785,4800.00
2786,4800.00
2787,4800.00
2788,4800.00
2789,4800.00
2790,4800.00
2791,4800.00
2792,0.00
2793,0.00
2794,4800.00
2795,4800.00
2796,4800.00
2797,4720.00
2798,80.00
2799,0.00
2800,0.00
2801,4880.00
2802,4800.00
2803,4800.00
2804,4800.00
2805,4800.00
2806,4800.00
2807,4800.00
2808,4800.00
2809,4720.00
2810,4800.00
2811,4800.00
2812,4800.00
2813,4720.00
2814,4800.00
2815,4800.00
2816,4800.00
2817,4720.00
2818,4800.00
2819,4720.00
2820,0.00
2821,0.00
2822,2560.00
2823,4800.00
2824,4800.00
2825,4720.00
2826,4800.00
2827,4800.00
2828,80.00
2829,160.00
2830,4800.00
2831,4800.00
2832,4800.00
2833,4800.00
2834,4800.00
2835,80.00
2836,80.00
2837,4080.00
2838,4800.00
2839,4800.00
2840,4880.00
2841,4800.00
2842,4800.00
2843,4800.00
2844,0.00
2845,160.00
2846,0.00
2847,4880.00
2848,4880.00
2849,4800.00
2850,4800.00
2851,4800.00
2852,4800.00
2853,4800.00
2854,4800.00
2855,4800.00
2856,160.00
2857,80.00
2858,4800.00
2859,4880.00
2860,4720.00
2861,4800.00
2862,0.00
2863,80.00
2864,0.00
2865,4800.00
2866,4800.00
2867,4800.00
2868,4880.00
2869,0.00
2870,80.00
2871,0.00
2872,4880.00
2873,4800.00
2874,4800.00
2875,4800.00
2876,4800.00
2877,4800.00
2878,4800.00
2879,4800.00
2880,4800.00
2881,4800.00
2882,4800.00
2883,4880.00
2884,4800.00
2885,4800.00
2886,4720.00
2887,4720.00
2888,4800.00
2889,80.00
2890,80.00
2891,4800.00
2892,4800.00
2893,4880.00
2894,4800.00
2895,4800.00
2896,4800.00
2897,80.00
2898,0.00
2899,4800.00
2900,4800.00
2901,4800.00
2902,4800.00
2903,80.00
2904,80.00
2905,4800.00
2906,4800.00
2907,4800.00
2908,4800.00
2909,4800.00
2910,4800.00
2911,0.00
2912,80.00
2913,4800.00
2914,4800.00
2915,4800.00
2916,4800.00
2917,4880.00
2918,4800.00
2919,4800.00
2920,0.00
2921,80.00
2922,160.00
2923,4880.00
2924,4800.00
2925,4800.00
2926,4800.00
2927,4720.00
2928,4800.00
2929,4720.00
2930,4800.00
2931,0.00
2932,80.00
2933,80.00
2934,4880.00
2935,4800.00
2936,4800.00
2937,4720.00
2938,4880.00
2939,0.00
2940,0.00
2941,4880.00
2942,4880.00
2943,4800.00
2944,4800.00
2945,4800.00
2946,4800.00
2947,4800.00
2948,4800.00
2949,4800.00
2950,4800.00
2951,320.00
2952,0.00
2953,0.00
2954,4800.00
2955,4800.00
2956,4880.00
2957,4640.00
2958,0.00
2959,80.00
2960,4560.00
2961,4800.00
2962,4800.00
2963,4800.00
2964,4800.00
2965,80.00
2966,80.00
2967,4800.00
2968,4800.00
2969,4800.00
2970,4800.00
2971,4720.00
2972,4800.00
2973,4800.00
2974,4800.00
2975,80.00
2976,160.00
2977,4800.00
2978,4880.00
2979,4800.00
2980,4720.00
2981,4800.00
2982,4800.00
2983,4800.00
2984,4800.00
2985,4800.00
2986,4800.00
2987,4800.00
2988,80.00
2989,80.00
2990,4800.00
2991,4800.00
2992,4800.00
2993,4800.00
2994,0.00
2995,0.00
2996,4800.00
2997,4720.00
2998,4800.00
2999,4800.00
3000,160.00
3001,80.00
3002,4560.00
3003,4800.00
3004,4800.00
3005,4800.00
3006,4800.00
3007,0.00
3008,0.00
3009,4800.00
3010,4800.00
3011,4800.00
3012,4800.00
3013,4800.00
3014,4800.00
3015,80.00
3016,0.00
3017,4800.00
3018,4800.00
3019,4800.00
3020,4800.00
3021,4800.00
3022,4800.00
3023,4800.00
3024,4800.00
3025,4800.00
3026,4800.00
3027,4720.00
3028,4800.00
3029,4800.00
3030,4800.00
3031,4800.00
3032,4800.00
3033,4800.00
3034,4800.00
3035,4720.00
3036,4800.00
3037,80.00
3038,80.00
3039,4800.00
3040,4800.00
3041,4800.00
3042,4880.00
3043,4800.00
3044,4800.00
3045,4720.00
3046,4800.00
3047,4800.00
3048,0.00
3049,80.00
3050,80.00
3051,4800.00
3052,4800.00
3053,4800.00
3054,4800.00
3055,4800.00
3056,4800.00
3057,4800.00
3058,4800.00
3059,4800.00
3060,4800.00
3061,4880.00
3062,4800.00
3063,4800.00
3064,4800.00
3065,4880.00
3066,80.00
3067,80.00
3068,4880.00
3069,4880.00
3070,4800.00
3071,4800.00
3072,4800.00
3073,4800.00
3074,80.00
3075,0.00
3076,4800.00
3077,4800.00
3078,4880.00
3079,4800.00
3080,4800.00
3081,4800.00
3082,4720.00
3083,4800.00
3084,4800.00
3085,4720.00
3086,4800.00
3087,4800.00
3088,4800.00
3089,4800.00
3090,4800.00
3091,80.00
3092,80.00
3093,4320.00
3094,4800.00
3095,4800.00
3096,4800.00
3097,4800.00
3098,4800.00
3099,4800.00
3100,4800.00
3101,4800.00
3102,4720.00
3103,4800.00
3104,4880.00
3105,4800.00
3106,4800.00
3107,4800.00
3108,4800.00
3109,4800.00
3110,4800.00
3111,4800.00
3112,4800.00
3113,4800.00
3114,4800.00
3115,4800.00
3116,4800.00
3117,4720.00
3118,4800.00
3119,4800.00
3120,0.00
3121,0.00
3122,4800.00
3123,4800.00
3124,4720.00
3125,4800.00
3126,4800.00
3127,4800.00
3128,4800.00
3129,4800.00
3130,4800.00
3131,4800.00
3132,4800.00
3133,80.00
3134,80.00
3135,0.00
3136,4800.00
3137,4800.00
3138,4800.00
3139,4800.00
3140,4800.00
3141,4800.00
3142,4800.00
3143,4880.00
3144,4880.00
3145,4800.00
3146,4800.00
3147,4800.00
3148,4800.00
3149,4880.00
3150,4800.00
3151,4720.00
3152,4800.00
3153,4800.00
3154,80.00
3155,0.00
3156,4560.00
3157,4800.00
3158,4800.00
3159,4800.00
3160,4640.00
3161,0.00
3162,0.00
3163,4720.00
3164,4720.00
3165,4800.00
3166,4800.00
3167,4800.00
3168,4880.00
3169,4800.00
3170,4800.00
3171,4800.00
3172,4720.00
3173,4800.00
3174,4800.00
3175,4800.00
3176,4800.00
3177,80.00
3178,0.00
3179,4880.00
3180,4800.00
3181,4800.00
3182,4800.00
3183,4800.00
3184,0.00
3185,0.00
3186,0.00
3187,4800.00
3188,4800.00
3189,4800.00
3190,4800.00
3191,4800.00
3192,80.00
3193,80.00
3194,80.00
3195,4800.00
3196,4800.00
3197,4800.00
3198,4720.00
3199,0.00
3200,160.00
3201,4880.00
3202,4800.00
3203,4720.00
3204,4720.00
3205,4800.00
3206,4800.00
3207,4800.00
3208,4800.00
3209,4800.00
3210,4800.00
3211,4800.00
3212,4800.00
3213,4800.00
3214,4800.00
3215,80.00
3216,80.00
3217,4800.00
3218,4800.00
3219,4800.00
3220,4800.00
3221,4720.00
3222,4800.00
3223,0.00
3224,0.00
3225,0.00
3226,4800.00
3227,4720.00
3228,4800.00
3229,4800.00
3230,4800.00
3231,4880.00
3232,4800.00
3233,4800.00
3234,4800.00
3235,4800.00
3236,4800.00
3237,4720.00
3238,4800.00
3239,4880.00
3240,4800.00
3241,4800.00
3242,4800.00
3243,4800.00
3244,4880.00
3245,4800.00
3246,4800.00
3247,4720.00
3248,4640.00
3249,4720.00
3250,4720.00
3251,4720.00
3252,4800.00
3253,4800.00
3254,0.00
3255,80.00
3256,4800.00
3257,4800.00
3258,4640.00
3259,4800.00
3260,4880.00
3261,4800.00
3262,4800.00
3263,4800.00
3264,4720.00
3265,4800.00
3266,4800.00
3267,4800.00
3268,4800.00
3269,4800.00
3270,4720.00
3271,4800.00
3272,4720.00
3273,80.00
3274,160.00
3275,4880.00
3276,4800.00
3277,4880.00
3278,4800.00
3279,4720.00
3280,4800.00
3281,4800.00
3282,4880.00
3283,4800.00
3284,4800.00
3285,4800.00
3286,4880.00
3287,4800.00
3288,4800.00
3289,4800.00
3290,4800.00
3291,4800.00
3292,4800.00
3293,4800.00
3294,4720.00
3295,80.00
3296,80.00
3297,4640.00
3298,4800.00
3299,4800.00
3300,4800.00
3301,0.00
3302,0.00
3303,4880.00
3304,4800.00
3305,4800.00
3306,4800.00
3307,4800.00
3308,80.00
3309,0.00
3310,4880.00
3311,4800.00
3312,4720.00
3313,4720.00
3314,4800.00
3315,4800.00
3316,0.00
3317,0.00
3318,3920.00
3319,4800.00
3320,4800.00
3321,4800.00
3322,4800.00
3323,4800.00
3324,4800.00
3325,4800.00
3326,4800.00
3327,4720.00
3328,4800.00
3329,4720.00
3330,4800.00
3331,4800.00
3332,4800.00
3333,4800.00
3334,4800.00
3335,4800.00
3336,0.00
3337,0.00
3338,4800.00
3339,4800.00
3340,4720.00
3341,4720.00
3342,4800.00
3343,4880.00
3344,4800.00
3345,0.00
3346,0.00
3347,160.00
3348,4800.00
3349,4800.00
3350,4800.00
3351,4720.00
3352,4800.00
3353,4800.00
3354,4800.00
3355,4800.00
3356,4800.00
3357,4800.00
3358,4720.00
3359,4720.00
3360,4720.00
3361,4800.00
3362,4800.00
3363,4720.00
3364,160.00
3365,160.00
3366,4880.00
3367,4800.00
3368,4800.00
3369,4800.00
3370,160.00
3371,80.00
3372,4560.00
3373,4800.00
3374,4800.00
3375,4880.00
3376,4800.00
3377,4800.00
3378,4720.00
3379,4800.00
3380,4800.00
3381,4800.00
3382,4720.00
3383,80.00
3384,160.00
3385,4800.00
3386,4800.00
3387,4800.00
3388,4800.00
3389,4720.00
3390,4800.00
3391,4800.00
3392,80.00
3393,0.00
3394,4000.00
3395,4800.00
3396,4720.00
3397,4800.00
3398,4800.00
3399,4800.00
3400,4800.00
3401,4800.00
3402,4800.00
3403,4800.00
3404,4800.00
3405,4800.00
3406,4800.00
3407,4800.00
3408,80.00
3409,0.00
3410,4800.00
3411,4800.00
3412,4800.00
3413,4800.00
3414,80.00
3415,80.00
3416,4800.00
3417,4800.00
3418,4800.00
3419,4800.00
3420,4800.00
3421,4720.00
3422,0.00
3423,0.00
3424,80.00
3425,4880.00
3426,4800.00
3427,4800.00
3428,4800.00
3429,4800.00
3430,4720.00
3431,4800.00
3432,4800.00
3433,4800.00
3434,4720.00
3435,4800.00
3436,80.00
3437,160.00
3438,4800.00
3439,4720.00
3440,4800.00
3441,4800.00
3442,4800.00
3443,4800.00
3444,4720.00
3445,4800.00
3446,4800.00
3447,4800.00
3448,4800.00
3449,4800.00
3450,2320.00
3451,160.00
3452,80.00
3453,4800.00
3454,4800.00
3455,4800.00
3456,4800.00
3457,4800.00
3458,4800.00
3459,4720.00
3460,0.00
3461,80.00
3462,4800.00
3463,4880.00
3464,4800.00
3465,4720.00
3466,4720.00
3467,4800.00
3468,4720.00
3469,4800.00
3470,4800.00
3471,4800.00
3472,4800.00
3473,4720.00
3474,4800.00
3475,4800.00
3476,4720.00
3477,4800.00
3478,4800.00
3479,4800.00
3480,4720.00
3481,4800.00
3482,4800.00
3483,4800.00
3484,4800.00
3485,4880.00
3486,4800.00
3487,0.00
3488,80.00
3489,160.00
3490,4800.00
3491,4800.00
3492,4800.00
3493,4800.00
3494,4800.00
3495,4800.00
3496,4800.00
3497,0.00
3498,0.00
3499,4800.00
3500,4720.00
3501,4800.00
3502,4720.00
3503,4720.00
3504,4800.00
3505,4720.00
3506,4800.00
3507,4720.00
3508,80.00
3509,80.00
3510,4800.00
3511,4800.00
3512,4800.00
3513,4720.00
3514,4720.00
3515,4720.00
3516,4800.00
3517,4800.00
3518,4800.00
3519,4800.00
3520,4800.00
3521,4800.00
3522,4800.00
3523,4800.00
3524,4800.00
3525,4800.00
3526,160.00
3527,0.00
3528,3200.00
3529,4800.00
3530,4800.00
3531,4720.00
3532,4800.00
3533,4800.00
3534,4800.00
3535,4720.00
3536,4800.00
3537,4800.00
3538,4800.00
3539,0.00
3540,80.00
3541,160.00
3542,4800.00
3543,4800.00
3544,4800.00
3545,4720.00
3546,0.00
3547,0.00
3548,4640.00
3549,4880.00
3550,4800.00
3551,4800.00
3552,4800.00
3553,4800.00
3554,4800.00
3555,4800.00
3556,4720.00
3557,4800.00
3558,4800.00
3559,4800.00
3560,4640.00
3561,4800.00
3562,4800.00
3563,4800.00
3564,4720.00
3565,0.00
3566,80.00
3567,80.00
3568,4800.00
3569,4800.00
3570,4800.00
3571,4800.00
3572,0.00
3573,0.00
3574,4800.00
3575,4800.00
3576,4880.00
3577,4800.00
3578,4800.00
3579,4800.00
3580,4800.00
3581,4800.00
3582,4720.00
3583,4800.00
3584,4800.00
3585,4720.00
3586,4800.00
3587,4800.00
3588,4800.00
3589,4640.00
3590,4720.00
3591,4720.00
3592,80.00
3593,0.00
3594,0.00
3595,4800.00
3596,4800.00
3597,4800.00
3598,80.00
3599,80.00
3600,4720.00
3601,4800.00
3602,4800.00
3603,4800.00
3604,4800.00
3605,4800.00
3606,80.00
3607,0.00
3608,4720.00
3609,4800.00
3610,4800.00
3611,4720.00
3612,4800.00
3613,4800.00
3614,80.00
3615,80.00
3616,4800.00
3617,4800.00
3618,4800.00
3619,4720.00
3620,4800.00
3621,80.00
3622,160.00
3623,80.00
3624,4800.00
3625,4800.00
3626,4800.00
3627,4720.00
3628,4800.00
3629,4800.00
3630,4800.00
3631,4800.00
3632,4800.00
3633,4800.00
3634,4800.00
3635,4720.00
3636,4640.00
3637,4800.00
3638,4880.00
3639,4800.00
3640,0.00
3641,80.00
3642,160.00
3643,4800.00
3644,4800.00
3645,4720.00
3646,4800.00
3647,4800.00
3648,4720.00
3649,4800.00
3650,4800.00
3651,4800.00
3652,4800.00
3653,80.00
3654,160.00
3655,4080.00
3656,4720.00
3657,4720.00
3658,4720.00
3659,4800.00
3660,4720.00
3661,4720.00
3662,4800.00
3663,4720.00
3664,4800.00
3665,4800.00
3666,4800.00
3667,4800.00
3668,4800.00
3669,4800.00
3670,4720.00
3671,0.00
3672,80.00
3673,4800.00
3674,4800.00
3675,4800.00
3676,4800.00
3677,4800.00
3678,0.00
3679,0.00
3680,80.00
3681,4800.00
3682,4720.00
3683,4800.00
3684,4800.00
3685,80.00
3686,160.00
3687,4800.00
3688,4800.00
3689,4720.00
3690,4720.00
3691,4720.00
3692,80.00
3693,80.00
3694,4800.00
3695,4800.00
3696,4800.00
3697,4800.00
3698,4800.00
3699,4800.00
3700,4800.00
3701,0.00
3702,80.00
3703,4800.00
3704,4800.00
3705,4800.00
3706,4800.00
3707,4800.00
3708,4800.00
3709,4800.00
3710,4800.00
3711,4800.00
3712,4800.00
3713,4800.00
3714,4800.00
3715,4800.00
3716,4800.00
3717,0.00
3718,80.00
3719,0.00
3720,4800.00
3721,4800.00
3722,4800.00
3723,4800.00
3724,4800.00
3725,4800.00
3726,0.00
3727,80.00
3728,0.00
3729,4800.00
3730,4800.00
3731,4800.00
3732,4640.00
3733,4800.00
3734,4800.00
3735,4800.00
3736,4720.00
3737,4800.00
3738,4800.00
3739,4800.00
3740,4800.00
3741,4800.00
3742,4800.00
3743,4720.00
3744,4800.00
3745,4800.00
3746,0.00
3747,80.00
3748,4800.00
3749,4800.00
3750,4800.00
3751,4800.00
3752,0.00
3753,80.00
3754,80.00
3755,4800.00
3756,4640.00
3757,4800.00
3758,4800.00
3759,4800.00
3760,4800.00
3761,80.00
3762,160.00
3763,160.00
3764,4800.00
3765,4800.00
3766,4800.00
3767,4720.00
3768,4720.00
3769,4800.00
3770,4800.00
3771,4800.00
3772,4800.00
3773,4800.00
3774,4800.00
3775,4800.00
3776,4800.00
3777,4640.00
3778,4720.00
3779,4640.00
3780,4720.00
3781,4800.00
3782,4800.00
3783,160.00
3784,80.00
3785,4800.00
3786,4800.00
3787,4800.00
3788,4800.00
3789,4640.00
3790,4800.00
3791,4640.00
3792,4800.00
3793,4800.00
3794,4800.00
3795,4800.00
3796,4800.00
3797,4800.00
3798,4800.00
3799,0.00
3800,80.00
3801,4880.00
3802,4720.00
3803,4800.00
3804,4800.00
3805,80.00
3806,160.00
3807,4720.00
3808,4880.00
3809,4800.00
3810,4720.00
3811,4720.00
3812,4800.00
3813,4800.00
3814,80.00
3815,80.00
3816,4800.00
3817,4800.00
3818,4800.00
3819,4800.00
3820,4800.00
3821,4800.00
3822,4800.00
3823,4800.00
3824,0.00
3825,80.00
3826,4240.00
3827,4800.00
3828,4800.00
3829,4720.00
3830,4800.00
3831,0.00
3832,0.00
3833,0.00
3834,4800.00
3835,4800.00
3836,4800.00
3837,4800.00
3838,160.00
3839,0.00
3840,4160.00
3841,4800.00
3842,4800.00
3843,4800.00
3844,4800.00
3845,4720.00
3846,4800.00
3847,4800.00
3848,4800.00
3849,4800.00
3850,4800.00
3851,4800.00
3852,4800.00
3853,4720.00
3854,4720.00
3855,160.00
3856,160.00
3857,400.00
3858,4800.00
3859,4800.00
3860,4800.00
3861,4800.00
3862,4720.00
3863,4720.00
3864,4720.00
3865,4800.00
3866,80.00
3867,80.00
3868,80.00
3869,4800.00
3870,4800.00
3871,4800.00
3872,4800.00
3873,4720.00
3874,4880.00
3875,4880.00
3876,4800.00
3877,4800.00
3878,4800.00
3879,4720.00
3880,4880.00
3881,0.00
3882,0.00
3883,4880.00
3884,4800.00
3885,4720.00
3886,4800.00
3887,4800.00
3888,4800.00
3889,4800.00
3890,4800.00
3891,80.00
3892,80.00
3893,4800.00
3894,4800.00
3895,4800.00
3896,4800.00
3897,4800.00
3898,0.00
3899,0.00
3900,160.00
3901,4800.00
3902,4640.00
3903,4720.00
3904,4800.00
3905,0.00
3906,0.00
3907,4800.00
3908,4800.00
3909,4880.00
3910,4800.00
3911,4720.00
3912,4720.00
3913,4800.00
3914,80.00
3915,80.00
3916,0.00
3917,4800.00
3918,4880.00
3919,4720.00
3920,4720.00
3921,4800.00
3922,4800.00
3923,4720.00
3924,4720.00
3925,4800.00
3926,4800.00
3927,4800.00
3928,4800.00
3929,4800.00
3930,4800.00
3931,4800.00
3932,4800.00
3933,4720.00
3934,4800.00
3935,4800.00
3936,4800.00
3937,4720.00
3938,4720.00
3939,4720.00
3940,4800.00
3941,4720.00
3942,4800.00
3943,4720.00
3944,4800.00
3945,4640.00
3946,4720.00
3947,4800.00
3948,4800.00
3949,4800.00
3950,4800.00
3951,4800.00
3952,4800.00
3953,4800.00
3954,4800.00
3955,4800.00
3956,4800.00
3957,4800.00
3958,4800.00
3959,4800.00
3960,4800.00
3961,4800.00
3962,4720.00
3963,0.00
3964,80.00
3965,4800.00
3966,4800.00
3967,4800.00
3968,4800.00
3969,4800.00
3970,0.00
3971,0.00
3972,160.00
3973,4800.00
3974,4800.00
3975,4800.00
3976,4800.00
3977,80.00
3978,80.00
3979,4800.00
3980,4800.00
3981,4800.00
3982,4720.00
3983,4800.00
3984,4800.00
3985,4720.00
3986,4800.00
3987,4800.00
3988,4880.00
3989,0.00
3990,80.00
3991,4880.00
3992,4800.00
3993,4800.00
3994,4800.00
3995,4800.00
3996,4800.00
3997,4800.00
3998,4800.00
3999,4800.00
4000,4800.00
4001,4800.00
4002,4720.00
4003,80.00
4004,80.00
4005,4800.00
4006,4800.00
4007,4800.00
4008,4800.00
4009,4800.00
4010,4800.00
4011,4800.00
4012,4800.00
4013,4880.00
4014,4800.00
4015,4720.00
4016,4720.00
4017,4720.00
4018,4800.00
4019,4800.00
4020,4800.00
4021,80.00
4022,0.00
4023,3120.00
4024,4800.00
4025,4720.00
4026,4800.00
4027,4800.00
4028,4800.00
4029,4800.00
4030,80.00
4031,80.00
4032,4800.00
4033,4800.00
4034,4880.00
4035,4800.00
4036,4800.00
4037,0.00
4038,80.00
4039,0.00
4040,4880.00
4041,4800.00
4042,4800.00
4043,4800.00
4044,4720.00
4045,4800.00
4046,4880.00
4047,4800.00
4048,4800.00
4049,4720.00
4050,4800.00
4051,4720.00
4052,4800.00
4053,4720.00
4054,4800.00
4055,4800.00
4056,4800.00
4057,0.00
4058,80.00
4059,4720.00
4060,4800.00
4061,4800.00
4062,4720.00
4063,4800.00
4064,4800.00
4065,4720.00
4066,0.00
4067,0.00
4068,0.00
4069,4800.00
4070,4800.00
4071,4800.00
4072,4800.00
4073,4800.00
4074,4800.00
4075,4720.00
4076,4800.00
4077,4800.00
4078,4800.00
4079,4800.00
4080,4800.00
4081,0.00
4082,0.00
4083,80.00
4084,4880.00
4085,4800.00
4086,4800.00
4087,4800.00
4088,4800.00
4089,4800.00
4090,4800.00
4091,4720.00
4092,4720.00
4093,4800.00
4094,4800.00
4095,4800.00
4096,4800.00
4097,4800.00
4098,4800.00
4099,4720.00
4100,320.00
4101,0.00
4102,0.00
4103,4800.00
4104,4800.00
4105,4800.00
4106,4800.00
4107,4800.00
4108,4800.00
4109,4800.00
4110,4720.00
4111,4800.00
4112,4720.00
4113,4800.00
4114,4800.00
4115,80.00
4116,80.00
4117,4880.00
4118,4800.00
4119,4800.00
4120,4800.00
4121,4720.00
4122,0.00
4123,0.00
4124,4720.00
4125,4800.00
4126,4800.00
4127,4800.00
4128,4720.00
4129,80.00
4130,80.00
4131,4800.00
4132,4800.00
4133,4720.00
4134,4800.00
4135,320.00
4136,80.00
4137,80.00
4138,4800.00
4139,4880.00
4140,4800.00
4141,4800.00
4142,4880.00
4143,4800.00
4144,4800.00
4145,4800.00
4146,0.00
4147,80.00
4148,160.00
4149,4880.00
4150,4800.00
4151,4800.00
4152,4800.00
4153,4800.00
4154,4800.00
4155,4880.00
4156,4800.00
4157,4800.00
4158,4800.00
4159,4800.00
4160,4800.00
4161,4800.00
4162,4720.00
4163,4800.00
4164,4800.00
4165,4800.00
4166,4800.00
4167,4720.00
4168,-720.00
4169,160.00
4170,160.00
4171,4800.00
4172,4720.00
4173,4800.00
4174,4800.00
4175,4800.00
4176,4800.00
4177,4800.00
4178,4800.00
4179,4720.00
4180,4800.00
4181,4800.00
4182,4720.00
4183,4800.00
4184,4800.00
4185,4800.00
4186,4800.00
4187,80.00
4188,80.00
4189,4800.00
4190,4880.00
4191,4800.00
4192,4720.00
4193,0.00
4194,0.00
4195,160.00
4196,4800.00
4197,4800.00
4198,4720.00
4199,4800.00
4200,4800.00
4201,4800.00
4202,4800.00
4203,80.00
4204,0.00
4205,160.00
4206,4880.00
4207,4720.00
4208,4720.00
4209,4800.00
4210,4720.00
4211,4800.00
4212,4720.00
4213,80.00
4214,160.00
4215,4800.00
4216,4800.00
4217,4800.00
4218,4720.00
4219,4720.00
4220,4800.00
4221,4800.00
4222,4800.00
4223,4800.00
4224,4720.00
4225,4800.00
4226,4800.00
4227,4800.00
4228,4960.00
4229,4720.00
4230,4880.00
4231,4800.00
4232,4800.00
4233,4800.00
4234,4800.00
4235,4800.00
4236,4720.00
4237,4880.00
4238,4800.00
4239,4800.00
4240,4800.00
4241,4800.00
4242,4800.00
4243,4800.00
4244,4800.00
4245,4720.00
4246,4800.00
4247,4720.00
4248,4800.00
4249,4800.00
4250,4800.00
4251,4800.00
4252,4800.00
4253,4800.00
4254,4800.00
4255,4880.00
4256,160.00
4257,80.00
4258,4800.00
4259,4800.00
4260,4880.00
4261,4720.00
4262,4800.00
4263,4720.00
4264,4800.00
4265,4720.00
4266,4800.00
4267,4640.00
4268,4800.00
4269,4800.00
4270,4800.00
4271,4800.00
4272,4800.00
4273,0.00
4274,0.00
4275,4800.00
4276,4800.00
4277,4800.00
4278,4800.00
4279,0.00
4280,0.00
4281,4400.00
4282,4720.00
4283,4800.00
4284,4800.00
4285,4720.00
4286,4720.00
4287,80.00
4288,80.00
4289,4800.00
4290,4800.00
4291,4800.00
4292,4800.00
4293,4720.00
4294,0.00
4295,80.00
4296,4720.00
4297,4800.00
4298,4800.00
4299,4720.00
4300,4800.00
4301,4800.00
4302,4640.00
4303,4800.00
4304,4800.00
4305,4800.00
4306,4720.00
4307,4800.00
4308,4800.00
4309,4800.00
4310,4720.00
4311,4800.00
4312,4800.00
4313,4720.00
4314,4800.00
4315,4720.00
4316,4800.00
4317,4800.00
4318,4800.00
4319,4800.00
4320,4800.00
4321,4800.00
4322,4800.00
4323,0.00
4324,0.00
4325,4800.00
4326,4800.00
4327,4800.00
4328,4800.00
4329,160.00
4330,80.00
4331,80.00
4332,4800.00
4333,4720.00
4334,4800.00
4335,4800.00
4336,4800.00
4337,4800.00
4338,4720.00
4339,4800.00
4340,4880.00
4341,4800.00
4342,4800.00
4343,0.00
4344,0.00
4345,4800.00
4346,4800.00
4347,4800.00
4348,4800.00
4349,4800.00
4350,4800.00
4351,160.00
4352,0.00
4353,4800.00
4354,4800.00
4355,4720.00
4356,4800.00
4357,4800.00
4358,4800.00
4359,4800.00
4360,4720.00
4361,4800.00
4362,4800.00
4363,4800.00
4364,4800.00
4365,4800.00
4366,4720.00
4367,4720.00
4368,4800.00
4369,4800.00
4370,4720.00
4371,4720.00
4372,4720.00
4373,80.00
4374,0.00
4375,4800.00
4376,4800.00
4377,4720.00
4378,4800.00
4379,4800.00
4380,4800.00
4381,4800.00
4382,4800.00
4383,4800.00
4384,4800.00
4385,4800.00
4386,4800.00
4387,4720.00
4388,4800.00
4389,4880.00
4390,4800.00
4391,4800.00
4392,4720.00
4393,4720.00
4394,4880.00
4395,4720.00
4396,4800.00
4397,4800.00
4398,4800.00
4399,4800.00
4400,4720.00
4401,4720.00
4402,0.00
4403,80.00
4404,4800.00
4405,4800.00
4406,4800.00
4407,4720.00
4408,4800.00
4409,4800.00
4410,80.00
4411,80.00
4412,4560.00
4413,4800.00
4414,4720.00
4415,4720.00
4416,4880.00
4417,4800.00
4418,4800.00
4419,4800.00
4420,4800.00
4421,4720.00
4422,4800.00
4423,4800.00
4424,4800.00
4425,4800.00
4426,4720.00
4427,4800.00
4428,4800.00
4429,4720.00
4430,4800.00
4431,4800.00
4432,4800.00
4433,0.00
4434,0.00
4435,4800.00
4436,4800.00
4437,4880.00
4438,4800.00
4439,4800.00
4440,4800.00
4441,4800.00
4442,4720.00
4443,4720.00
4444,4800.00
4445,4640.00
4446,4800.00
4447,4800.00
4448,4720.00
4449,4800.00
4450,4800.00
4451,4720.00
4452,4800.00
4453,4800.00
4454,4800.00
4455,4720.00
4456,4720.00
4457,0.00
4458,80.00
4459,4800.00
4460,4800.00
4461,4800.00
4462,0.00
4463,0.00
4464,80.00
4465,4800.00
4466,4800.00
4467,4720.00
4468,4800.00
4469,4800.00
4470,4720.00
4471,4800.00
4472,4800.00
4473,4800.00
4474,0.00
4475,80.00
4476,0.00
4477,4800.00
4478,4800.00
4479,4800.00
4480,4800.00
4481,4800.00
4482,0.00
4483,0.00
4484,4800.00
4485,4800.00
4486,4720.00
4487,4720.00
4488,4800.00
4489,4800.00
4490,4800.00
4491,4800.00
4492,4800.00
4493,4800.00
4494,4720.00
4495,4800.00
4496,4720.00
4497,80.00
4498,0.00
4499,4800.00
4500,4800.00
4501,4800.00
4502,4800.00
4503,4720.00
4504,4800.00
4505,4720.00
4506,4800.00
4507,4800.00
4508,4800.00
4509,4800.00
4510,4800.00
4511,4800.00
4512,4800.00
4513,4880.00
4514,4720.00
4515,4720.00
4516,4800.00
4517,4800.00
4518,4800.00
4519,4960.00
4520,4800.00
4521,4880.00
4522,4800.00
4523,4800.00
4524,4800.00
4525,4720.00
4526,4800.00
4527,4720.00
4528,4800.00
4529,4800.00
4530,4800.00
4531,4800.00
4532,4800.00
4533,4800.00
4534,80.00
4535,80.00
4536,4800.00
4537,4800.00
4538,4800.00
4539,4800.00
4540,4720.00
4541,4800.00
4542,4800.00
4543,4800.00
4544,4720.00
4545,4800.00
4546,4880.00
4547,4800.00
4548,4800.00
4549,400.00
4550,80.00
4551,80.00
4552,4880.00
4553,4720.00
4554,4800.00
4555,4800.00
4556,4800.00
4557,4800.00
4558,4800.00
4559,4800.00
4560,4720.00
4561,4800.00
4562,4720.00
4563,4720.00
4564,4720.00
4565,4800.00
4566,4800.00
4567,4800.00
4568,160.00
4569,0.00
4570,80.00
4571,4800.00
4572,4800.00
4573,4800.00
4574,4800.00
4575,4800.00
4576,4800.00
4577,4800.00
4578,4800.00
4579,4880.00
4580,4720.00
4581,4800.00
4582,4720.00
4583,4800.00
4584,80.00
4585,80.00
4586,4800.00
4587,4800.00
4588,4800.00
4589,4720.00
4590,4800.00
4591,0.00
4592,0.00
4593,0.00
4594,4800.00
4595,4800.00
4596,4720.00
4597,4800.00
4598,4800.00
4599,4720.00
4600,4720.00
4601,4720.00
4602,4800.00
4603,4800.00
4604,4720.00
4605,160.00
4606,80.00
4607,4800.00
4608,4800.00
4609,4800.00
4610,4800.00
4611,4800.00
4612,4800.00
4613,0.00
4614,160.00
4615,400.00
4616,4800.00
4617,4800.00
4618,4800.00
4619,4800.00
4620,4800.00
4621,4720.00
4622,0.00
4623,80.00
4624,4720.00
4625,4800.00
4626,4800.00
4627,4800.00
4628,4800.00
4629,4720.00
4630,0.00
4631,0.00
4632,4800.00
4633,4800.00
4634,4800.00
4635,4800.00
4636,4880.00
4637,4720.00
4638,4800.00
4639,4800.00
4640,0.00
4641,80.00
4642,0.00
4643,4800.00
4644,4800.00
4645,4800.00
4646,4880.00
4647,80.00
4648,0.00
4649,4080.00
4650,4800.00
4651,4800.00
4652,4720.00
4653,4720.00
4654,4720.00
4655,4800.00
4656,160.00
4657,160.00
4658,4800.00
4659,4800.00
4660,4800.00
4661,4720.00
4662,4800.00
4663,4800.00
4664,4800.00
4665,4800.00
4666,4800.00
4667,4800.00
4668,4800.00
4669,4720.00
4670,4720.00
4671,4800.00
4672,4800.00
4673,0.00
4674,0.00
4675,80.00
4676,4800.00
4677,4720.00
4678,4800.00
4679,4800.00
4680,4800.00
4681,4720.00
4682,4800.00
4683,4720.00
4684,4720.00
4685,80.00
4686,160.00
4687,4720.00
4688,4800.00
4689,4800.00
4690,4800.00
4691,4800.00
4692,4800.00
4693,80.00
4694,160.00
4695,4880.00
4696,4720.00
4697,4800.00
4698,4800.00
4699,4800.00
4700,4800.00
4701,4800.00
4702,4800.00
4703,4800.00
4704,4800.00
4705,4880.00
4706,4880.00
4707,4800.00
4708,4800.00
4709,80.00
4710,80.00
4711,4800.00
4712,4800.00
4713,4800.00
4714,4800.00
4715,4800.00
4716,4800.00
4717,0.00
4718,80.00
4719,4800.00
4720,4800.00
4721,4800.00
4722,4800.00
4723,4800.00
4724,0.00
4725,0.00
4726,80.00
4727,4800.00
4728,4800.00
4729,4720.00
4730,4800.00
4731,4720.00
4732,4640.00
4733,4800.00
4734,4800.00
4735,4800.00
4736,4800.00
4737,4800.00
4738,4800.00
4739,4800.00
4740,4720.00
4741,4800.00
4742,4800.00
4743,4720.00
4744,4720.00
4745,4800.00
4746,4720.00
4747,4720.00
4748,80.00
4749,80.00
4750,4800.00
4751,4800.00
4752,4800.00
4753,4720.00
4754,4800.00
4755,4800.00
4756,4800.00
4757,4800.00
4758,4640.00
4759,4800.00
4760,4800.00
4761,4800.00
4762,4800.00
4763,4720.00
4764,4720.00
4765,4800.00
4766,4800.00
4767,4720.00
4768,4800.00
4769,4800.00
4770,4800.00
4771,4800.00
4772,4800.00
4773,80.00
4774,80.00
4775,4800.00
4776,4800.00
4777,4800.00
4778,4800.00
4779,4800.00
4780,4800.00
4781,4800.00
4782,4800.00
4783,4720.00
4784,4800.00
4785,4720.00
4786,4800.00
4787,4800.00
4788,4800.00
4789,4800.00
4790,4800.00
4791,4800.00
4792,4800.00
4793,80.00
4794,0.00
4795,160.00
4796,4800.00
4797,4720.00
4798,4640.00
4799,4800.00
4800,4720.00
4801,4720.00
4802,4800.00
4803,4800.00
4804,4800.00
4805,4640.00
4806,4720.00
4807,4720.00
4808,0.00
4809,0.00
4810,4800.00
4811,4800.00
4812,4800.00
4813,4800.00
4814,4800.00
4815,0.00
4816,160.00
4817,4800.00
4818,4800.00
4819,4800.00
4820,4800.00
4821,4800.00
4822,4880.00
4823,4800.00
4824,4800.00
4825,4800.00
4826,4800.00
4827,4720.00
4828,4720.00
4829,4720.00
4830,4800.00
4831,4720.00
4832,4800.00
4833,4800.00
4834,4800.00
4835,4800.00
4836,4800.00
4837,4800.00
4838,4800.00
4839,4800.00
4840,0.00
4841,80.00
4842,80.00
4843,4800.00
4844,4800.00
4845,4800.00
4846,80.00
4847,0.00
4848,4800.00
4849,4720.00
4850,4800.00
4851,4720.00
4852,4880.00
4853,80.00
4854,0.00
4855,4080.00
4856,4880.00
4857,4800.00
4858,4800.00
4859,4800.00
4860,4800.00
4861,4800.00
4862,4720.00
4863,4800.00
4864,4720.00
4865,4800.00
4866,4800.00
4867,4800.00
4868,4800.00
4869,4800.00
4870,4720.00
4871,0.00
4872,0.00
4873,0.00
4874,4800.00
4875,4720.00
4876,4800.00
4877,4800.00
4878,4800.00
4879,4720.00
4880,4800.00
4881,4720.00
4882,4800.00
4883,4800.00
4884,4800.00
4885,4800.00
4886,4800.00
4887,4800.00
4888,4720.00
4889,4800.00
4890,4800.00
4891,4720.00
4892,0.00
4893,0.00
4894,160.00
4895,4800.00
4896,4720.00
4897,4800.00
4898,4800.00
4899,4720.00
4900,4880.00
4901,4800.00
4902,-80.00
4903,80.00
4904,80.00
4905,4800.00
4906,4800.00
4907,4720.00
4908,4800.00
4909,4800.00
4910,4800.00
4911,4800.00
4912,4800.00
4913,4720.00
4914,4800.00
4915,4800.00
4916,4800.00
4917,4800.00
4918,4720.00
4919,4800.00
4920,4800.00
4921,4800.00
4922,4880.00
4923,4800.00
4924,80.00
4925,160.00
4926,160.00
4927,4800.00
4928,4720.00
4929,4800.00
4930,4800.00
4931,4800.00
4932,0.00
4933,160.00
4934,4880.00
4935,4720.00
4936,4800.00
4937,4720.00
4938,4880.00
4939,4800.00
4940,4800.00
4941,4800.00
4942,4720.00
4943,4800.00
4944,0.00
4945,0.00
4946,80.00
4947,4800.00
4948,4720.00
4949,4800.00
4950,4800.00
4951,4800.00
4952,4800.00
4953,4800.00
4954,0.00
4955,0.00
4956,4800.00
4957,4800.00
4958,4800.00
4959,4800.00
4960,80.00
4961,0.00
4962,160.00
4963,4800.00
4964,4640.00
4965,4800.00
4966,4800.00
4967,4800.00
4968,4800.00
4969,4800.00
4970,80.00
4971,0.00
4972,4800.00
4973,4800.00
4974,4800.00
4975,4800.00
4976,4800.00
4977,0.00
4978,0.00
4979,4800.00
4980,4800.00
4981,4800.00
4982,4800.00
4983,4880.00
4984,4800.00
4985,4720.00
4986,4880.00
4987,4720.00
4988,4800.00
4989,4720.00
4990,4720.00
4991,4720.00
4992,4800.00
4993,4720.00
4994,4800.00
4995,4880.00
4996,4720.00
4997,4800.00
4998,4800.00
4999,4800.00
5000,4800.00
5001,4800.00
5002,4800.00
5003,0.00
5004,80.00
5005,80.00
5006,4720.00
5007,4800.00
5008,4800.00
5009,4800.00
5010,4800.00
5011,4800.00
5012,4800.00
5013,4800.00
5014,4800.00
5015,4720.00
5016,4720.00
5017,4800.00
5018,4720.00
5019,4800.00
5020,4720.00
5021,4720.00
5022,4800.00
5023,4880.00
5024,4720.00
5025,4800.00
5026,4800.00
5027,4800.00
5028,4800.00
5029,4800.00
5030,4800.00
5031,4800.00
5032,4800.00
5033,4800.00
5034,4800.00
5035,4800.00
5036,4720.00
5037,4720.00
5038,4800.00
5039,0.00
5040,0.00
5041,4800.00
5042,4800.00
5043,4800.00
5044,80.00
5045,80.00
5046,4800.00
5047,4720.00
5048,4800.00
5049,4720.00
5050,0.00
5051,160.00
5052,4800.00
5053,4800.00
5054,4720.00
5055,4800.00
5056,4800.00
5057,4800.00
5058,4800.00
5059,0.00
5060,80.00
5061,4800.00
5062,4800.00
5063,4800.00
5064,4720.00
5065,4800.00
5066,4720.00
5067,4800.00
5068,4800.00
5069,4800.00
5070,4800.00
5071,4720.00
5072,4800.00
5073,4800.00
5074,4800.00
5075,4720.00
5076,4800.00
5077,80.00
5078,0.00
5079,160.00
5080,4800.00
5081,4880.00
5082,4800.00
5083,4800.00
5084,4800.00
5085,4800.00
5086,4800.00
5087,80.00
5088,80.00
5089,4800.00
5090,4800.00
5091,4800.00
5092,4800.00
5093,0.00
5094,0.00
5095,0.00
5096,4800.00
5097,4800.00
5098,4800.00
5099,4800.00
5100,4720.00
5101,4800.00
5102,4800.00
5103,4800.00
5104,4720.00
5105,4800.00
5106,4800.00
5107,4800.00
5108,4640.00
5109,4800.00
5110,0.00
5111,80.00
5112,4800.00
5113,4720.00
5114,4720.00
5115,4800.00
5116,4720.00
5117,4720.00
5118,4800.00
5119,0.00
5120,0.00
5121,80.00
5122,4800.00
5123,4800.00
5124,4800.00
5125,4720.00
5126,4800.00
5127,4800.00
5128,0.00
5129,80.00
5130,80.00
5131,4800.00
5132,4800.00
5133,4800.00
5134,4720.00
5135,4800.00
5136,4800.00
5137,4720.00
5138,4800.00
5139,4800.00
5140,80.00
5141,80.00
5142,4800.00
5143,4800.00
5144,4720.00
5145,4800.00
5146,4800.00
5147,4800.00
5148,4640.00
5149,80.00
5150,160.00
5151,4800.00
5152,4800.00
5153,4720.00
5154,4800.00
5155,4800.00
5156,4720.00
5157,4720.00
5158,4800.00
5159,0.00
5160,80.00
5161,4800.00
5162,4800.00
5163,4800.00
5164,4800.00
5165,4800.00
5166,4800.00
5167,4800.00
5168,4800.00
5169,4800.00
5170,4800.00
5171,4800.00
5172,4880.00
5173,4880.00
5174,4800.00
5175,4800.00
5176,4800.00
5177,4800.00
5178,4720.00
5179,4800.00
5180,4800.00
5181,4720.00
5182,4800.00
5183,4640.00
5184,4800.00
5185,4800.00
5186,4800.00
5187,0.00
5188,80.00
5189,4800.00
5190,4800.00
5191,4800.00
5192,4720.00
5193,4800.00
5194,4800.00
5195,4800.00
5196,80.00
5197,0.00
5198,3920.00
5199,4800.00
5200,4800.00
5201,4800.00
5202,4800.00
5203,4800.00
5204,4800.00
5205,0.00
5206,0.00
5207,4800.00
5208,4800.00
5209,4800.00
5210,4800.00
5211,4800.00
5212,4800.00
5213,4720.00
5214,0.00
5215,80.00
5216,80.00
5217,4800.00
5218,4800.00
5219,4800.00
5220,4800.00
5221,4720.00
5222,4800.00
5223,4800.00
5224,4800.00
5225,4800.00
5226,4800.00
5227,4800.00
5228,4800.00
5229,4720.00
5230,4800.00
5231,4720.00
5232,4800.00
5233,4720.00
5234,4800.00
5235,4800.00
5236,4800.00
5237,4800.00
5238,4800.00
5239,80.00
5240,0.00
5241,4800.00
5242,4720.00
5243,4880.00
5244,4800.00
5245,4800.00
5246,4800.00
5247,80.00
5248,80.00
5249,4640.00
5250,4880.00
5251,4800.00
5252,4800.00
5253,4800.00
5254,4800.00
5255,4800.00
5256,80.00
5257,80.00
5258,4800.00
5259,4800.00
5260,4800.00
5261,4880.00
5262,4800.00
5263,4800.00
5264,4800.00
5265,0.00
5266,0.00
5267,160.00
5268,4800.00
5269,4720.00
5270,4720.00
5271,80.00
5272,80.00
5273,4800.00
5274,4800.00
5275,4800.00
5276,4800.00
5277,4800.00
5278,4800.00
5279,4800.00
5280,4720.00
5281,0.00
5282,80.00
5283,4400.00
5284,4800.00
5285,4720.00
5286,4800.00
5287,4800.00
5288,4720.00
5289,4800.00
5290,4800.00
5291,4800.00
5292,4720.00
5293,4640.00
5294,4800.00
5295,4800.00
5296,80.00
5297,80.00
5298,4800.00
5299,4800.00
5300,4720.00
5301,4800.00
5302,4800.00
5303,4800.00
5304,0.00
5305,80.00
5306,4800.00
5307,4800.00
5308,4800.00
5309,4800.00
5310,4800.00
5311,4720.00
5312,4800.00
5313,4800.00
5314,4720.00
5315,4800.00
5316,4800.00
5317,80.00
5318,160.00
5319,80.00
5320,4800.00
5321,4800.00
5322,4720.00
5323,4800.00
5324,4800.00
5325,4800.00
5326,4800.00
5327,0.00
5328,80.00
5329,4800.00
5330,4800.00
5331,4800.00
5332,4800.00
5333,4800.00
5334,4800.00
5335,4720.00
5336,4720.00
5337,4800.00
5338,0.00
5339,80.00
5340,80.00
5341,4800.00
5342,4800.00
5343,4800.00
5344,0.00
5345,80.00
5346,80.00
5347,4800.00
5348,4800.00
5349,4720.00
5350,4720.00
5351,4800.00
5352,4800.00
5353,4880.00
5354,4800.00
5355,4800.00
5356,4800.00
5357,4800.00
5358,4720.00
5359,4800.00
5360,4800.00
5361,4800.00
5362,4800.00
5363,4720.00
5364,0.00
5365,0.00
5366,0.00
5367,4800.00
5368,4800.00
5369,4800.00
5370,0.00
5371,0.00
5372,80.00
5373,4800.00
5374,4800.00
5375,4720.00
5376,4800.00
5377,4800.00
5378,4800.00
5379,160.00
5380,0.00
5381,4320.00
5382,4800.00
5383,4800.00
5384,4800.00
5385,4720.00
5386,4800.00
5387,4800.00
5388,400.00
5389,80.00
5390,0.00
5391,4960.00
5392,4800.00
5393,4720.00
5394,4800.00
5395,4800.00
5396,4800.00
5397,4800.00
5398,4800.00
5399,4800.00
5400,4800.00
5401,4800.00
5402,4800.00
5403,4800.00
5404,4720.00
5405,4800.00
5406,4800.00
5407,4800.00
5408,4800.00
5409,4800.00
5410,4720.00
5411,0.00
5412,0.00
5413,0.00
5414,4880.00
5415,4800.00
5416,4720.00
5417,4800.00
5418,80.00
5419,80.00
5420,4880.00
5421,4800.00
5422,4800.00
5423,4800.00
5424,4800.00
5425,0.00
5426,80.00
5427,80.00
5428,4800.00
5429,4800.00
5430,4800.00
5431,4800.00
5432,80.00
5433,80.00
5434,4800.00
5435,4720.00
5436,4800.00
5437,4720.00
5438,4720.00
5439,80.00
5440,80.00
5441,4800.00
5442,4800.00
5443,4800.00
5444,4800.00
5445,4800.00
5446,4800.00
5447,0.00
5448,0.00
5449,4800.00
5450,4880.00
5451,4800.00
5452,4800.00
5453,4800.00
5454,4800.00
5455,80.00
5456,80.00
5457,4800.00
5458,4720.00
5459,4720.00
5460,4800.00
5461,4800.00
5462,4800.00
5463,4720.00
5464,4880.00
5465,4800.00
5466,4720.00
5467,4800.00
5468,4800.00
5469,4640.00
5470,4800.00
5471,4800.00
5472,4720.00
5473,80.00
5474,80.00
5475,4800.00
5476,4720.00
5477,4800.00
5478,4720.00
5479,4800.00
5480,4800.00
5481,4800.00
5482,4880.00
5483,4720.00
5484,4800.00
5485,4800.00
5486,4800.00
5487,4800.00
5488,4720.00
5489,4800.00
5490,4800.00
5491,4720.00
5492,4800.00
5493,4720.00
5494,4880.00
5495,4800.00
5496,4720.00
5497,0.00
5498,0.00
5499,80.00
5500,4800.00
5501,4720.00
5502,4800.00
5503,4800.00
5504,4800.00
5505,4800.00
5506,4800.00
5507,0.00
5508,0.00
5509,4880.00
5510,4800.00
5511,4800.00
5512,4800.00
5513,4800.00
5514,4800.00
5515,4800.00
5516,4880.00
5517,4800.00
5518,4800.00
5519,4880.00
5520,4720.00
5521,4800.00
5522,4640.00
5523,4720.00
5524,4720.00
5525,80.00
5526,80.00
5527,4800.00
5528,4800.00
5529,4800.00
5530,4800.00
5531,4800.00
5532,4800.00
5533,4800.00
5534,0.00
5535,80.00
5536,80.00
5537,4800.00
5538,4800.00
5539,4800.00
5540,4800.00
5541,4800.00
5542,4800.00
5543,0.00
5544,0.00
5545,4800.00
5546,4800.00
5547,4800.00
5548,4800.00
5549,4880.00
5550,80.00
5551,80.00
5552,0.00
5553,4800.00
5554,4880.00
5555,4720.00
5556,4800.00
5557,4800.00
5558,4800.00
5559,4800.00
5560,80.00
5561,80.00
5562,4800.00
5563,4800.00
5564,4800.00
5565,0.00
5566,0.00
5567,0.00
5568,4800.00
5569,4800.00
5570,4800.00
5571,4800.00
5572,4800.00
5573,4720.00
5574,80.00
5575,160.00
5576,160.00
5577,4800.00
5578,4720.00
5579,4800.00
5580,4720.00
5581,4800.00
5582,4800.00
5583,4800.00
5584,4800.00
5585,0.00
5586,0.00
5587,80.00
5588,4800.00
5589,4800.00
5590,4800.00
5591,4800.00
5592,4800.00
5593,4720.00
5594,4800.00
5595,4800.00
5596,4800.00
5597,4800.00
5598,4800.00
5599,0.00
5600,80.00
5601,4800.00
5602,4800.00
5603,4720.00
5604,4720.00
5605,4800.00
5606,4800.00
5607,4720.00
5608,4800.00
5609,0.00
5610,80.00
5611,80.00
5612,4800.00
5613,4800.00
5614,4800.00
5615,4800.00
5616,4800.00
5617,4800.00
5618,4800.00
5619,4800.00
5620,4800.00
5621,4800.00
5622,4800.00
5623,4800.00
5624,4800.00
5625,4800.00
5626,4720.00
5627,4800.00
5628,4800.00
5629,4800.00
5630,4880.00
5631,80.00
5632,0.00
5633,4800.00
5634,4800.00
5635,4800.00
5636,4800.00
5637,4800.00
5638,80.00
5639,80.00
5640,2240.00
5641,4800.00
5642,4800.00
5643,4800.00
5644,4800.00
5645,4720.00
5646,4800.00
5647,4720.00
5648,4800.00
5649,4880.00
5650,4800.00
5651,4720.00
5652,4800.00
5653,0.00
5654,80.00
5655,4800.00
5656,4800.00
5657,4720.00
5658,4800.00
5659,4880.00
5660,80.00
5661,160.00
5662,80.00
5663,4800.00
5664,4800.00
5665,4800.00
5666,4720.00
5667,4800.00
5668,4800.00
5669,4880.00
5670,4880.00
5671,4720.00
5672,80.00
5673,0.00
5674,4640.00
5675,4800.00
5676,4800.00
5677,4800.00
5678,4880.00
5679,4880.00
5680,4640.00
5681,4800.00
5682,0.00
5683,0.00
5684,80.00
5685,4800.00
5686,4720.00
5687,4800.00
5688,4800.00
5689,4800.00
5690,160.00
5691,160.00
5692,4880.00
5693,4800.00
5694,4800.00
5695,4720.00
5696,4800.00
5697,4800.00
5698,4800.00
5699,4800.00
5700,4800.00
5701,4800.00
5702,4800.00
5703,4720.00
5704,4800.00
5705,4720.00
5706,4800.00
5707,4720.00
5708,4720.00
5709,4720.00
5710,4800.00
5711,4800.00
5712,4800.00
5713,4800.00
5714,4800.00
5715,4720.00
5716,4720.00
5717,80.00
5718,160.00
5719,4800.00
5720,4720.00
5721,4880.00
5722,4720.00
5723,4720.00
5724,4800.00
5725,2000.00
5726,0.00
5727,0.00
5728,4800.00
5729,4880.00
5730,4800.00
5731,4800.00
5732,0.00
5733,0.00
5734,4720.00
5735,4800.00
5736,4720.00
5737,4800.00
5738,4800.00
5739,4800.00
5740,4720.00
5741,4800.00
5742,4800.00
5743,0.00
5744,0.00
5745,0.00
5746,4800.00
5747,4800.00
5748,4640.00
5749,4800.00
5750,4800.00
5751,4720.00
5752,4800.00
5753,80.00
5754,80.00
5755,4800.00
5756,4880.00
5757,4800.00
5758,4800.00
5759,4800.00
5760,4800.00
5761,4720.00
5762,4720.00
5763,4800.00
5764,80.00
5765,0.00
5766,160.00
5767,4800.00
5768,4800.00
5769,4800.00
5770,4800.00
5771,4800.00
5772,4800.00
5773,4800.00
5774,4800.00
5775,4800.00
5776,4720.00
5777,4800.00
5778,4720.00
5779,4800.00
5780,4800.00
5781,0.00
5782,0.00
5783,4800.00
5784,4800.00
5785,4800.00
5786,4800.00
5787,4800.00
5788,0.00
5789,0.00
5790,160.00
5791,4800.00
5792,4800.00
5793,4800.00
5794,4800.00
5795,0.00
5796,160.00
5797,4720.00
5798,4800.00
5799,4800.00
5800,4720.00
5801,4800.00
5802,4800.00
5803,4720.00
5804,4720.00
5805,4720.00
5806,4800.00
5807,0.00
5808,80.00
5809,0.00
5810,4800.00
5811,4800.00
5812,4720.00
5813,4800.00
5814,4800.00
5815,80.00
5816,80.00
5817,4800.00
5818,4800.00
5819,4720.00
5820,4800.00
5821,4800.00
5822,4800.00
5823,4800.00
5824,4800.00
5825,4800.00
5826,4800.00
5827,4720.00
5828,4800.00
5829,4800.00
5830,4720.00
5831,4800.00
5832,4640.00
5833,80.00
5834,80.00
5835,4720.00
5836,4880.00
5837,4720.00
5838,4800.00
5839,4720.00
5840,0.00
5841,160.00
5842,4800.00
5843,4800.00
5844,4800.00
5845,4800.00
5846,4800.00
5847,4720.00
5848,4720.00
5849,4720.00
5850,4720.00
5851,4720.00
5852,80.00
5853,80.00
5854,4800.00
5855,4720.00
5856,4720.00
5857,4800.00
5858,4720.00
5859,4800.00
5860,4800.00
5861,4720.00
5862,4720.00
5863,4720.00
5864,4800.00
5865,4800.00
5866,4800.00
5867,4800.00
5868,4800.00
5869,4800.00
5870,4800.00
5871,4800.00
5872,160.00
5873,0.00
5874,4800.00
5875,4800.00
5876,4800.00
5877,4800.00
5878,4800.00
5879,0.00
5880,80.00
5881,160.00
5882,4800.00
5883,4800.00
5884,4800.00
5885,4800.00
5886,4800.00
5887,80.00
5888,80.00
5889,4800.00
5890,4800.00
5891,4720.00
5892,4720.00
5893,4800.00
5894,4800.00
5895,4720.00
5896,4640.00
5897,4720.00
5898,4800.00
5899,4880.00
5900,4800.00
5901,4800.00
5902,4800.00
5903,80.00
5904,160.00
5905,4800.00
5906,4800.00
5907,4720.00
5908,4800.00
5909,4800.00
5910,4800.00
5911,4720.00
5912,4880.00
5913,4800.00
5914,4800.00
5915,4720.00
5916,4800.00
5917,4800.00
5918,4720.00
5919,4720.00
5920,4800.00
5921,4720.00
5922,4720.00
5923,160.00
5924,80.00
5925,160.00
5926,4800.00
5927,4800.00
5928,4800.00
5929,4720.00
5930,4800.00
5931,0.00
5932,0.00
5933,4720.00
5934,4800.00
5935,4800.00
5936,4800.00
5937,4720.00
5938,4800.00
5939,80.00
5940,0.00
5941,4800.00
5942,4720.00
5943,4800.00
5944,4800.00
5945,80.00
5946,80.00
5947,4560.00
5948,4800.00
5949,4800.00
5950,4800.00
5951,4800.00
5952,4800.00
5953,0.00
5954,0.00
5955,4720.00
5956,4800.00
5957,4800.00
5958,4720.00
5959,4800.00
5960,4720.00
5961,4800.00
5962,4800.00
5963,80.00
5964,80.00
5965,4800.00
5966,4720.00
5967,4800.00
5968,4720.00
5969,4800.00
5970,4800.00
5971,4800.00
5972,4800.00
5973,4800.00
5974,4800.00
5975,4800.00
5976,3840.00
5977,0.00
5978,80.00
5979,4800.00
5980,4720.00
5981,4800.00
5982,4880.00
5983,4800.00
5984,80.00
5985,160.00
5986,400.00
5987,4800.00
5988,4720.00
5989,4800.00
5990,4800.00
5991,4720.00
5992,4800.00
5993,4800.00
5994,4800.00
5995,4800.00
5996,4800.00
5997,4880.00
5998,4720.00
5999,4800.00
6000,0.00
6001,80.00
6002,160.00
6003,4800.00
6004,4720.00
6005,4800.00
6006,4720.00
6007,80.00
6008,160.00
6009,4800.00
6010,4800.00
6011,4800.00
6012,4720.00
6013,4800.00
6014,4800.00
6015,4800.00
6016,4800.00
6017,4800.00
6018,4800.00
6019,160.00
6020,160.00
6021,160.00
6022,4800.00
6023,4720.00
6024,4800.00
6025,4800.00
6026,4800.00
6027,4800.00
6028,4800.00
6029,0.00
6030,160.00
6031,80.00
6032,4800.00
6033,4800.00
6034,4720.00
6035,4800.00
6036,4800.00
6037,4800.00
6038,4720.00
6039,80.00
6040,0.00
6041,4800.00
6042,4720.00
6043,4800.00
6044,4720.00
6045,4640.00
6046,4720.00
6047,4800.00
6048,4800.00
6049,4720.00
6050,4880.00
6051,4800.00
6052,4800.00
6053,80.00
6054,80.00
6055,0.00
6056,4800.00
6057,4800.00
6058,4800.00
6059,4880.00
6060,4800.00
6061,4800.00
6062,4720.00
6063,4800.00
6064,4720.00
6065,4720.00
6066,4720.00
6067,4800.00
6068,4800.00
6069,4800.00
6070,4800.00
6071,4800.00
6072,4880.00
6073,4720.00
6074,80.00
6075,80.00
6076,4720.00
6077,4800.00
6078,4800.00
6079,4720.00
6080,4800.00
6081,4720.00
6082,4800.00
6083,400.00
6084,80.00
6085,80.00
6086,4800.00
6087,4800.00
6088,4720.00
6089,4800.00
6090,4800.00
6091,4800.00
6092,4880.00
6093,4800.00
6094,160.00
6095,160.00
6096,4800.00
6097,4800.00
6098,4800.00
6099,4800.00
6100,4800.00
6101,4800.00
6102,4800.00
6103,4800.00
6104,4800.00
6105,4800.00
6106,4720.00
6107,4800.00
6108,4720.00
6109,4800.00
6110,4800.00
6111,4800.00
6112,4800.00
6113,4800.00
6114,4800.00
6115,4800.00
6116,0.00
6117,0.00
6118,0.00
6119,4800.00
6120,4800.00
6121,4720.00
6122,4800.00
6123,4800.00
6124,4800.00
6125,0.00
6126,0.00
6127,80.00
6128,4800.00
6129,4800.00
6130,4720.00
6131,4800.00
6132,4800.00
6133,4720.00
6134,4800.00
6135,4800.00
6136,4800.00
6137,4720.00
6138,4720.00
6139,4720.00
6140,4720.00
6141,4800.00
6142,4800.00
6143,4800.00
6144,4800.00
6145,4720.00
6146,4720.00
6147,4800.00
6148,4800.00
6149,4800.00
6150,4720.00
6151,4800.00
6152,4800.00
6153,4800.00
6154,4800.00
6155,4720.00
6156,4800.00
6157,4800.00
6158,4800.00
6159,4880.00
6160,4800.00
6161,4800.00
6162,4800.00
6163,4800.00
6164,0.00
6165,0.00
6166,4800.00
6167,4800.00
6168,4800.00
6169,4800.00
6170,4800.00
6171,4800.00
6172,4800.00
6173,4800.00
6174,0.00
6175,160.00
6176,4720.00
6177,4800.00
6178,4800.00
6179,4800.00
6180,4720.00
6181,4880.00
6182,4800.00
6183,4800.00
6184,4800.00
6185,4720.00
6186,4800.00
6187,4720.00
6188,4800.00
6189,4800.00
6190,4720.00
6191,4720.00
6192,4720.00
6193,4800.00
6194,4640.00
6195,4640.00
6196,4720.00
6197,4800.00
6198,4800.00
6199,4800.00
6200,4720.00
6201,4720.00
6202,4800.00
6203,4720.00
6204,4720.00
6205,4800.00
6206,80.00
6207,160.00
6208,4800.00
6209,4800.00
6210,4800.00
6211,4800.00
6212,4880.00
6213,4880.00
6214,4720.00
6215,4720.00
6216,4800.00
6217,4720.00
6218,4720.00
6219,4800.00
6220,4640.00
6221,4800.00
6222,4800.00
6223,0.00
6224,0.00
6225,80.00
6226,4800.00
6227,4720.00
6228,4800.00
6229,4800.00
6230,4720.00
6231,4720.00
6232,-80.00
6233,0.00
6234,0.00
6235,4800.00
6236,4800.00
6237,4720.00
6238,4800.00
6239,4800.00
6240,4720.00
6241,0.00
6242,80.00
6243,80.00
6244,4800.00
6245,4720.00
6246,4800.00
6247,4800.00
6248,4800.00
6249,4720.00
6250,0.00
6251,80.00
6252,4800.00
6253,4800.00
6254,4720.00
6255,4800.00
6256,4800.00
6257,4880.00
6258,4800.00
6259,4800.00
6260,4720.00
6261,4720.00
6262,4800.00
6263,0.00
6264,0.00
6265,80.00
6266,4800.00
6267,4800.00
6268,4800.00
6269,4880.00
6270,4800.00
6271,4720.00
6272,4800.00
6273,4720.00
6274,4720.00
6275,4720.00
6276,4800.00
6277,4720.00
6278,4720.00
6279,4800.00
6280,4800.00
6281,0.00
6282,0.00
6283,80.00
6284,4720.00
6285,4800.00
6286,4720.00
6287,4640.00
6288,4800.00
6289,4800.00
6290,160.00
6291,160.00
6292,80.00
6293,4800.00
6294,4800.00
6295,4800.00
6296,4800.00
6297,4800.00
6298,4800.00
6299,4800.00
6300,4800.00
6301,4800.00
6302,4800.00
6303,4800.00
6304,4800.00
6305,4800.00
6306,4800.00
6307,4720.00
6308,4720.00
6309,4720.00
6310,4800.00
6311,4720.00
6312,4800.00
6313,4800.00
6314,4640.00
6315,4720.00
6316,4640.00
6317,4800.00
6318,4720.00
6319,4800.00
6320,4800.00
6321,80.00
6322,80.00
6323,160.00
6324,4800.00
6325,4800.00
6326,4720.00
6327,4800.00
6328,4800.00
6329,4800.00
6330,4720.00
6331,160.00
6332,0.00
6333,4800.00
6334,4800.00
6335,4800.00
6336,4800.00
6337,4720.00
6338,4800.00
6339,4800.00
6340,4800.00
6341,4800.00
6342,4800.00
6343,4720.00
6344,4800.00
6345,4800.00
6346,4720.00
6347,4800.00
6348,4640.00
6349,80.00
6350,80.00
6351,4800.00
6352,4800.00
6353,4720.00
6354,4720.00
6355,4800.00
6356,4800.00
6357,4800.00
6358,4800.00
6359,4800.00
6360,400.00
6361,160.00
6362,80.00
6363,4800.00
6364,4800.00
6365,4800.00
6366,4720.00
6367,4800.00
6368,0.00
6369,80.00
6370,4400.00
6371,4800.00
6372,4800.00
6373,4800.00
6374,4800.00
6375,4720.00
6376,4720.00
6377,0.00
6378,80.00
6379,4800.00
6380,4800.00
6381,4720.00
6382,4800.00
6383,4800.00
6384,4800.00
6385,4640.00
6386,4720.00
6387,4640.00
6388,4800.00
6389,4720.00
6390,4800.00
6391,4720.00
6392,4720.00
6393,4720.00
6394,4800.00
6395,4800.00
6396,4800.00
6397,0.00
6398,0.00
6399,80.00
6400,4800.00
6401,4720.00
6402,4800.00
6403,4720.00
6404,4720.00
6405,4800.00
6406,4800.00
6407,4800.00
6408,4800.00
6409,4800.00
6410,4800.00
6411,4800.00
6412,4800.00
6413,4800.00
6414,4720.00
6415,4720.00
6416,4720.00
6417,4800.00
6418,1440.00
6419,0.00
6420,80.00
6421,4720.00
6422,4800.00
6423,4800.00
6424,4720.00
6425,4720.00
6426,4800.00
6427,0.00
6428,0.00
6429,80.00
6430,4720.00
6431,4720.00
6432,4800.00
6433,4800.00
6434,4720.00
6435,4720.00
6436,80.00
6437,0.00
6438,0.00
6439,4800.00
6440,4800.00
6441,4720.00
6442,4800.00
6443,4720.00
6444,80.00
6445,160.00
6446,4800.00
6447,4800.00
6448,4800.00
6449,4800.00
6450,4720.00
6451,4720.00
6452,4800.00
6453,80.00
6454,80.00
6455,4800.00
6456,4800.00
6457,4880.00
6458,4800.00
6459,4800.00
6460,4640.00
6461,4800.00
6462,4800.00
6463,4800.00
6464,4800.00
6465,4800.00
6466,4800.00
6467,4800.00
6468,4800.00
6469,4800.00
6470,4800.00
6471,4720.00
6472,80.00
6473,0.00
6474,4800.00
6475,4720.00
6476,4800.00
6477,4800.00
6478,4800.00
6479,80.00
6480,160.00
6481,4800.00
6482,4800.00
6483,4800.00
6484,4800.00
6485,4720.00
6486,4800.00
6487,4800.00
6488,4800.00
6489,4800.00
6490,4800.00
6491,4800.00
6492,4800.00
6493,4800.00
6494,4720.00
6495,160.00
6496,0.00
6497,4800.00
6498,4800.00
6499,4720.00
6500,4720.00
6501,4800.00
6502,4800.00
6503,4800.00
6504,4800.00
6505,160.00
6506,80.00
6507,4720.00
6508,4800.00
6509,4800.00
6510,4800.00
6511,4720.00
6512,4720.00
6513,4800.00
6514,80.00
6515,80.00
6516,4800.00
6517,4800.00
6518,4800.00
6519,4720.00
6520,4800.00
6521,4800.00
6522,80.00
6523,160.00
6524,4560.00
6525,4800.00
6526,4880.00
6527,4720.00
6528,4720.00
6529,4800.00
6530,4800.00
6531,4800.00
6532,0.00
6533,0.00
6534,4800.00
6535,4800.00
6536,4800.00
6537,4720.00
6538,4800.00
6539,0.00
6540,80.00
6541,4320.00
6542,4800.00
6543,4800.00
6544,4720.00
6545,4720.00
6546,160.00
6547,80.00
6548,4560.00
6549,4800.00
6550,4800.00
6551,4800.00
6552,4800.00
6553,4800.00
6554,80.00
6555,0.00
6556,4000.00
6557,4880.00
6558,4800.00
6559,4720.00
6560,4720.00
6561,0.00
6562,0.00
6563,4560.00
6564,4800.00
6565,4800.00
6566,4720.00
6567,4800.00
6568,4800.00
6569,4720.00
6570,4800.00
6571,4800.00
6572,4720.00
6573,4800.00
6574,4800.00
6575,4800.00
6576,4800.00
6577,4800.00
6578,4800.00
6579,4800.00
6580,4800.00
6581,4800.00
6582,4800.00
6583,4720.00
6584,4720.00
6585,4800.00
6586,4800.00
6587,80.00
6588,0.00
6589,4720.00
6590,4720.00
6591,4800.00
6592,4720.00
6593,4720.00
6594,4720.00
6595,4720.00
6596,4640.00
6597,4800.00
6598,4800.00
6599,80.00
6600,4800.00
6601,4800.00
6602,4800.00
6603,4800.00
6604,4640.00
6605,4800.00
6606,0.00
6607,80.00
6608,4720.00
6609,4800.00
6610,4800.00
6611,4800.00
6612,4800.00
6613,4800.00
6614,4800.00
6615,4720.00
6616,4800.00
6617,4720.00
6618,4880.00
6619,4800.00
6620,4720.00
6621,0.00
6622,80.00
6623,0.00
6624,4800.00
6625,4800.00
6626,4720.00
6627,4720.00
6628,4800.00
6629,4720.00
6630,4800.00
6631,4800.00
6632,4800.00
6633,4800.00
6634,4720.00
6635,4720.00
6636,4800.00
6637,4800.00
6638,4720.00
6639,4800.00
6640,4800.00
6641,0.00
6642,0.00
6643,240.00
6644,4800.00
6645,4800.00
6646,4720.00
6647,4800.00
6648,4800.00
6649,4720.00
6650,4800.00
6651,4800.00
6652,4720.00
6653,80.00
6654,0.00
6655,4800.00
6656,4800.00
6657,4800.00
6658,4720.00
6659,4720.00
6660,4720.00
6661,4720.00
6662,4800.00
6663,4800.00
6664,4720.00
6665,4800.00
6666,4720.00
6667,4800.00
6668,4800.00
6669,4720.00
6670,4720.00
6671,4800.00
6672,4640.00
6673,4800.00
6674,4800.00
6675,0.00
6676,0.00
6677,4800.00
6678,4800.00
6679,4800.00
6680,4720.00
6681,4800.00
6682,4800.00
6683,0.00
6684,0.00
6685,4720.00
6686,4800.00
6687,4880.00
6688,4800.00
6689,4800.00
6690,80.00
6691,160.00
6692,4800.00
6693,4800.00
6694,4800.00
6695,4800.00
6696,4800.00
6697,4720.00
6698,4800.00
6699,4720.00
6700,4800.00
6701,4720.00
6702,4800.00
6703,4720.00
6704,4800.00
6705,4800.00
6706,0.00
6707,160.00
6708,4800.00
6709,4720.00
6710,4800.00
6711,4800.00
6712,4800.00
6713,4640.00
6714,0.00
6715,0.00
6716,3360.00
6717,4800.00
6718,4720.00
6719,4800.00
6720,4720.00
6721,4800.00
6722,4800.00
6723,160.00
6724,0.00
6725,4640.00
6726,4720.00
6727,4720.00
6728,4800.00
6729,4800.00
6730,4800.00
6731,4800.00
6732,4800.00
6733,4640.00
6734,4800.00
6735,4720.00
6736,4720.00
6737,4800.00
6738,4800.00
6739,4800.00
6740,4800.00
6741,4800.00
6742,4800.00
6743,4720.00
6744,4720.00
6745,4800.00
6746,4720.00
6747,4800.00
6748,4800.00
6749,4720.00
6750,4800.00
6751,4800.00
6752,80.00
6753,0.00
6754,4800.00
6755,4800.00
6756,4720.00
6757,4800.00
6758,4720.00
6759,4800.00
6760,4720.00
6761,4800.00
6762,4800.00
6763,4880.00
6764,4800.00
6765,4800.00
6766,0.00
6767,80.00
6768,3440.00
6769,4800.00
6770,4720.00
6771,4720.00
6772,4800.00
6773,4800.00
6774,160.00
6775,160.00
6776,4800.00
6777,4800.00
6778,4720.00
6779,4720.00
6780,4720.00
6781,80.00
6782,0.00
6783,3920.00
6784,4800.00
6785,4800.00
6786,4720.00
6787,4800.00
6788,4800.00
6789,160.00
6790,0.00
6791,4800.00
6792,4800.00
6793,4720.00
6794,4720.00
6795,4800.00
6796,4800.00
6797,4720.00
6798,4880.00
6799,4800.00
6800,4800.00
6801,4800.00
6802,4720.00
6803,4800.00
6804,4720.00
6805,4720.00
6806,4800.00
6807,4720.00
6808,4720.00
6809,4800.00
6810,4800.00
6811,4720.00
6812,4720.00
6813,0.00
6814,80.00
6815,3680.00
6816,4800.00
6817,4800.00
6818,4720.00
6819,80.00
6820,160.00
6821,0.00
6822,4800.00
6823,4640.00
6824,4720.00
6825,4800.00
6826,0.00
6827,80.00
6828,80.00
6829,4800.00
6830,4800.00
6831,4800.00
6832,4720.00
6833,0.00
6834,0.00
6835,4720.00
6836,4880.00
6837,4720.00
6838,4720.00
6839,4800.00
6840,4800.00
6841,4800.00
6842,4800.00
6843,4800.00
6844,4800.00
6845,-80.00
6846,80.00
6847,160.00
6848,4800.00
6849,4800.00
6850,4720.00
6851,4800.00
6852,4800.00
6853,4800.00
6854,4720.00
6855,4720.00
6856,4720.00
6857,4720.00
6858,4800.00
6859,4800.00
6860,4800.00
6861,4800.00
6862,4800.00
6863,4800.00
6864,4800.00
6865,4720.00
6866,4720.00
6867,4800.00
6868,0.00
6869,80.00
6870,0.00
6871,4800.00
6872,4800.00
6873,4720.00
6874,4800.00
6875,4800.00
6876,4720.00
6877,4720.00
6878,80.00
6879,80.00
6880,4720.00
6881,4800.00
6882,4800.00
6883,4720.00
6884,4880.00
6885,4800.00
6886,160.00
6887,160.00
6888,4800.00
6889,4800.00
6890,4640.00
6891,4720.00
6892,4720.00
6893,4800.00
6894,4720.00
6895,4800.00
6896,4800.00
6897,4720.00
6898,4720.00
6899,4640.00
6900,4720.00
6901,4720.00
6902,0.00
6903,0.00
6904,80.00
6905,4800.00
6906,4800.00
6907,4720.00
6908,4640.00
6909,4800.00
6910,4720.00
6911,4720.00
6912,4720.00
6913,4800.00
6914,-80.00
6915,0.00
6916,160.00
6917,4800.00
6918,4800.00
6919,4800.00
6920,4800.00
6921,4800.00
6922,0.00
6923,0.00
6924,4800.00
6925,4880.00
6926,4800.00
6927,4800.00
6928,4800.00
6929,4800.00
6930,4800.00
6931,80.00
6932,80.00
6933,4720.00
6934,4800.00
6935,4800.00
6936,4800.00
6937,0.00
6938,160.00
6939,80.00
6940,4720.00
6941,4800.00
6942,4720.00
6943,4800.00
6944,4720.00
6945,4720.00
6946,80.00
6947,80.00
6948,2560.00
6949,4800.00
6950,4800.00
6951,4800.00
6952,4720.00
6953,4800.00
6954,4800.00
6955,4720.00
6956,4800.00
6957,4800.00
6958,4800.00
6959,4880.00
6960,4720.00
6961,4800.00
6962,4720.00
6963,0.00
6964,0.00
6965,0.00
6966,4800.00
6967,4800.00
6968,4720.00
6969,4720.00
6970,4800.00
6971,4800.00
6972,160.00
6973,80.00
6974,4880.00
6975,4720.00
6976,4800.00
6977,4800.00
6978,4720.00
6979,4720.00
6980,4800.00
6981,4800.00
6982,4720.00
6983,4800.00
6984,4720.00
6985,4800.00
6986,4720.00
6987,4800.00
6988,4720.00
6989,4800.00
6990,4800.00
6991,4720.00
6992,4800.00
6993,4800.00
6994,4800.00
6995,4720.00
6996,4800.00
6997,0.00
6998,0.00
6999,4800.00
7000,4720.00
7001,4800.00
7002,4800.00
7003,4880.00
7004,4800.00
7005,4720.00
7006,4720.00
7007,4800.00
7008,4800.00
7009,4800.00
7010,4800.00
7011,4800.00
7012,3840.00
7013,80.00
7014,160.00
7015,4800.00
7016,4720.00
7017,4720.00
7018,4800.00
7019,4720.00
7020,4800.00
7021,4800.00
7022,4800.00
7023,4800.00
7024,4800.00
7025,4720.00
7026,4800.00
7027,4800.00
7028,4720.00
7029,4800.00
7030,4800.00
7031,4720.00
7032,4800.00
7033,4800.00
7034,4800.00
7035,80.00
7036,80.00
7037,80.00
7038,4800.00
7039,4800.00
7040,4800.00
7041,4720.00
7042,4800.00
7043,4720.00
7044,4800.00
7045,4800.00
7046,4720.00
7047,4720.00
7048,4800.00
7049,4720.00
7050,4720.00
7051,4800.00
7052,4800.00
7053,4800.00
7054,4800.00
7055,4800.00
7056,4720.00
7057,4800.00
7058,4640.00
7059,4800.00
7060,4800.00
7061,4800.00
7062,0.00
7063,80.00
7064,4480.00
7065,4800.00
7066,4800.00
7067,4720.00
7068,4800.00
7069,80.00
7070,0.00
7071,4800.00
7072,4800.00
7073,4800.00
7074,4800.00
7075,4800.00
7076,4800.00
7077,4800.00
7078,80.00
7079,0.00
7080,4800.00
7081,4720.00
7082,4720.00
7083,4800.00
7084,4800.00
7085,4720.00
7086,4800.00
7087,4800.00
7088,4800.00
7089,4800.00
7090,4800.00
7091,4880.00
7092,4720.00
7093,4800.00
7094,4720.00
7095,80.00
7096,160.00
7097,80.00
7098,4720.00
7099,4720.00
7100,4800.00
7101,4720.00
7102,4800.00
7103,4800.00
7104,4800.00
7105,4720.00
7106,4800.00
7107,4800.00
7108,4800.00
7109,4800.00
7110,4720.00
7111,4720.00
7112,4800.00
7113,4720.00
7114,4800.00
7115,4720.00
7116,4800.00
7117,4800.00
7118,4800.00
7119,4800.00
7120,4800.00
7121,4800.00
7122,4800.00
7123,4800.00
7124,4800.00
7125,4720.00
7126,4720.00
7127,4720.00
7128,4720.00
7129,4800.00
7130,4720.00
7131,4720.00
7132,4720.00
7133,4800.00
7134,4720.00
7135,80.00
7136,80.00
7137,4560.00
7138,4800.00
7139,4800.00
7140,4720.00
7141,4720.00
7142,4800.00
7143,80.00
7144,160.00
7145,4800.00
7146,4800.00
7147,4800.00
7148,4720.00
7149,4720.00
7150,0.00
7151,0.00
7152,4800.00
7153,4800.00
7154,4800.00
7155,4720.00
7156,4800.00
7157,4720.00
7158,4800.00
7159,4720.00
7160,0.00
7161,0.00
7162,1600.00
7163,4800.00
7164,4720.00
7165,4800.00
7166,4720.00
7167,4800.00
7168,4800.00
7169,4800.00
7170,80.00
7171,80.00
7172,4320.00
7173,4800.00
7174,4720.00
7175,4800.00
7176,4800.00
7177,4720.00
7178,0.00
7179,0.00
7180,80.00
7181,4800.00
7182,4800.00
7183,4880.00
7184,4720.00
7185,4880.00
7186,80.00
7187,0.00
7188,80.00
7189,4800.00
7190,4800.00
7191,4800.00
7192,4800.00
7193,4800.00
7194,4800.00
7195,4800.00
7196,4800.00
7197,4800.00
7198,4800.00
7199,4800.00
7200,4800.00
7201,4800.00
7202,4720.00
7203,0.00
7204,160.00
7205,80.00
7206,4800.00
7207,4800.00
7208,4800.00
7209,4800.00
7210,4720.00
7211,4800.00
7212,4640.00
7213,4800.00
7214,4640.00
7215,4800.00
7216,0.00
7217,80.00
7218,3760.00
7219,4720.00
7220,4800.00
7221,4800.00
7222,0.00
7223,0.00
7224,80.00
7225,4800.00
7226,4880.00
7227,4720.00
7228,4720.00
7229,4800.00
7230,4800.00
7231,4800.00
7232,4800.00
7233,4720.00
7234,4640.00
7235,4800.00
7236,4800.00
7237,4800.00
7238,4800.00
7239,4800.00
7240,4800.00
7241,4720.00
7242,4720.00
7243,4720.00
7244,4800.00
7245,4720.00
7246,0.00
7247,0.00
7248,80.00
7249,4720.00
7250,4800.00
7251,4800.00
7252,4720.00
7253,4720.00
7254,4720.00
7255,4800.00
7256,4800.00
7257,0.00
7258,0.00
7259,80.00
7260,4800.00
7261,4800.00
7262,4800.00
7263,4800.00
7264,4800.00
7265,4800.00
7266,4800.00
7267,4720.00
7268,4800.00
7269,80.00
7270,160.00
7271,4800.00
7272,4800.00
7273,4800.00
7274,4800.00
7275,0.00
7276,80.00
7277,80.00
7278,4800.00
7279,4800.00
7280,4720.00
7281,4800.00
7282,4800.00
7283,4800.00
7284,160.00
7285,0.00
7286,4800.00
7287,4800.00
7288,4800.00
7289,4720.00
7290,4720.00
7291,4640.00
7292,4640.00
7293,4720.00
7294,4720.00
7295,4720.00
7296,4800.00
7297,4800.00
7298,4800.00
7299,4640.00
7300,4720.00
7301,4720.00
7302,4720.00
7303,0.00
7304,0.00
7305,4880.00
7306,4880.00
7307,4800.00
7308,4720.00
7309,4800.00
7310,80.00
7311,80.00
7312,4880.00
7313,4800.00
7314,4800.00
7315,4800.00
7316,4800.00
7317,4800.00
7318,4800.00
7319,4800.00
7320,4880.00
7321,4800.00
7322,4720.00
7323,4720.00
7324,4720.00
7325,4720.00
7326,4800.00
7327,4800.00
7328,4720.00
7329,4720.00
7330,4720.00
7331,4800.00
7332,4800.00
7333,4800.00
7334,4720.00
7335,0.00
7336,0.00
7337,4800.00
7338,4800.00
7339,4640.00
7340,4800.00
7341,4800.00
7342,4800.00
7343,0.00
7344,80.00
7345,4800.00
7346,4800.00
7347,4800.00
7348,4800.00
7349,0.00
7350,0.00
7351,3040.00
7352,4800.00
7353,4720.00
7354,4720.00
7355,4800.00
7356,0.00
7357,80.00
7358,0.00
7359,4800.00
7360,4800.00
7361,4720.00
7362,4800.00
7363,0.00
7364,80.00
7365,4800.00
7366,4720.00
7367,4800.00
7368,4720.00
7369,4800.00
7370,4720.00
7371,4800.00
7372,0.00
7373,80.00
7374,4800.00
7375,4800.00
7376,4720.00
7377,4800.00
7378,4800.00
7379,80.00
7380,0.00
7381,4800.00
7382,4720.00
7383,4720.00
7384,4800.00
7385,4720.00
7386,4720.00
7387,0.00
7388,80.00
7389,4800.00
7390,4720.00
7391,4720.00
7392,4720.00
7393,4800.00
7394,4720.00
7395,4800.00
7396,4800.00
7397,4800.00
7398,4720.00
7399,4800.00
7400,3040.00
7401,80.00
7402,160.00
7403,4800.00
7404,4800.00
7405,4800.00
7406,4720.00
7407,4800.00
7408,4800.00
7409,0.00
7410,80.00
7411,80.00
7412,4800.00
7413,4800.00
7414,4800.00
7415,4800.00
7416,4720.00
7417,0.00
7418,0.00
7419,0.00
7420,4880.00
7421,4800.00
7422,4800.00
7423,4800.00
7424,4800.00
7425,4720.00
7426,0.00
7427,0.00
7428,4800.00
7429,4800.00
7430,4800.00
7431,4800.00
7432,4800.00
7433,4720.00
7434,4800.00
7435,4800.00
7436,4720.00
7437,4800.00
7438,4800.00
7439,4720.00
7440,4800.00
7441,4800.00
7442,4720.00
7443,4720.00
7444,4800.00
7445,4720.00
7446,4800.00
7447,4720.00
7448,4720.00
7449,4720.00
7450,4720.00
7451,0.00
7452,0.00
7453,80.00
7454,4720.00
7455,4800.00
7456,4720.00
7457,4800.00
7458,4800.00
7459,4800.00
7460,4800.00
7461,4720.00
7462,4800.00
7463,4800.00
7464,4800.00
7465,4880.00
7466,4800.00
7467,4720.00
7468,4720.00
7469,4720.00
7470,4720.00
7471,4800.00
7472,4800.00
7473,4880.00
7474,4800.00
7475,4800.00
7476,80.00
7477,80.00
7478,4720.00
7479,4800.00
7480,4720.00
7481,4800.00
7482,4800.00
7483,0.00
7484,160.00
7485,160.00
7486,4800.00
7487,4800.00
7488,4720.00
7489,4800.00
7490,4720.00
7491,4800.00
7492,4800.00
7493,4800.00
7494,4800.00
7495,0.00
7496,80.00
7497,4800.00
7498,4800.00
7499,4800.00
7500,4720.00
7501,4800.00
7502,80.00
7503,80.00
7504,0.00
7505,4800.00
7506,4800.00
7507,4800.00
7508,4800.00
7509,4720.00
7510,4800.00
7511,4800.00
7512,4800.00
7513,4800.00
7514,4800.00
7515,4800.00
7516,4800.00
7517,4720.00
7518,4800.00
7519,4720.00
7520,160.00
7521,80.00
7522,4720.00
7523,4800.00
7524,4800.00
7525,4720.00
7526,4800.00
7527,4640.00
7528,4720.00
7529,4720.00
7530,4800.00
7531,4800.00
7532,4720.00
7533,4800.00
7534,4720.00
7535,4720.00
7536,4800.00
7537,0.00
7538,80.00
7539,4800.00
7540,4800.00
7541,4720.00
7542,4800.00
7543,4800.00
7544,4800.00
7545,4720.00
7546,4800.00
7547,4800.00
7548,160.00
7549,80.00
7550,4800.00
7551,4800.00
7552,4800.00
7553,4800.00
7554,0.00
7555,0.00
7556,80.00
7557,4800.00
7558,4800.00
7559,4720.00
7560,4720.00
7561,0.00
7562,80.00
7563,160.00
7564,4720.00
7565,4720.00
7566,4800.00
7567,4800.00
7568,4800.00
7569,4800.00
7570,4800.00
7571,4800.00
7572,4720.00
7573,4720.00
7574,4720.00
7575,4800.00
7576,4800.00
7577,0.00
7578,80.00
7579,80.00
7580,4800.00
7581,4800.00
7582,4800.00
7583,4800.00
7584,4800.00
7585,4800.00
7586,4720.00
7587,4800.00
7588,4800.00
7589,4720.00
7590,4800.00
7591,80.00
7592,80.00
7593,4800.00
7594,4800.00
7595,4800.00
7596,4720.00
7597,4720.00
7598,4640.00
7599,0.00
7600,0.00
7601,4720.00
7602,4720.00
7603,4800.00
7604,4720.00
7605,4720.00
7606,4800.00
7607,4800.00
7608,4720.00
7609,4720.00
7610,4800.00
7611,4800.00
7612,4800.00
7613,4800.00
7614,4800.00
7615,4800.00
7616,4720.00
7617,0.00
7618,80.00
7619,4800.00
7620,4800.00
7621,4720.00
7622,4720.00
7623,4800.00
7624,4800.00
7625,80.00
7626,160.00
7627,80.00
7628,4800.00
7629,4800.00
7630,4800.00
7631,4720.00
7632,4720.00
7633,4800.00
7634,4720.00
7635,4640.00
7636,4800.00
7637,4800.00
7638,4720.00
7639,4720.00
7640,4720.00
7641,4800.00
7642,4800.00
7643,0.00
7644,0.00
7645,4800.00
7646,4720.00
7647,4800.00
7648,4800.00
7649,4800.00
7650,4800.00
7651,4720.00
7652,4640.00
7653,4800.00
7654,4800.00
7655,4800.00
7656,4800.00
7657,4720.00
7658,4800.00
7659,4800.00
7660,4720.00
7661,0.00
7662,80.00
7663,0.00
7664,4800.00
7665,4800.00
7666,4800.00
7667,4800.00
7668,4800.00
7669,0.00
7670,80.00
7671,4800.00
7672,4800.00
7673,4800.00
7674,4800.00
7675,4720.00
7676,4800.00
7677,4800.00
7678,4800.00
7679,4800.00
7680,4800.00
7681,4800.00
7682,4640.00
7683,4720.00
7684,4800.00
7685,4800.00
7686,4720.00
7687,4640.00
7688,4800.00
7689,4720.00
7690,4800.00
7691,4800.00
7692,4800.00
7693,80.00
7694,80.00
7695,4880.00
7696,4800.00
7697,4720.00
7698,4800.00
7699,4720.00
7700,4720.00
7701,4720.00
7702,4720.00
7703,4800.00
7704,4800.00
7705,4800.00
7706,4720.00
7707,4800.00
7708,4800.00
7709,320.00
7710,80.00
7711,80.00
7712,4800.00
7713,4800.00
7714,4800.00
7715,4720.00
7716,80.00
7717,80.00
7718,4720.00
7719,4720.00
7720,4720.00
7721,4720.00
7722,4800.00
7723,4640.00
7724,0.00
7725,80.00
7726,0.00
7727,4800.00
7728,4800.00
7729,4720.00
7730,4800.00
7731,4640.00
7732,4720.00
7733,4720.00
7734,4800.00
7735,0.00
7736,80.00
7737,4800.00
7738,4800.00
7739,4800.00
7740,4800.00
7741,4800.00
7742,4720.00
7743,4800.00
7744,4800.00
7745,4800.00
7746,4800.00
7747,4800.00
7748,4800.00
7749,4800.00
7750,4720.00
7751,4720.00
7752,4720.00
7753,0.00
7754,0.00
7755,4720.00
7756,4720.00
7757,4800.00
7758,4720.00
7759,4720.00
7760,80.00
7761,160.00
7762,4800.00
7763,4800.00
7764,4720.00
7765,4720.00
7766,4800.00
7767,4800.00
7768,4800.00
7769,4720.00
7770,4800.00
7771,4640.00
7772,4800.00
7773,4800.00
7774,4800.00
7775,4720.00
7776,4720.00
7777,4720.00
7778,4720.00
7779,4800.00
7780,4800.00
7781,4800.00
7782,4720.00
7783,4800.00
7784,4800.00
7785,4720.00
7786,4800.00
7787,4720.00
7788,4800.00
7789,4720.00
7790,4800.00
7791,4720.00
7792,4640.00
7793,4720.00
7794,4800.00
7795,80.00
7796,80.00
7797,4800.00
7798,4720.00
7799,4640.00
7800,4800.00
7801,4800.00
7802,4800.00
7803,4800.00
7804,4800.00
7805,80.00
7806,80.00
7807,0.00
7808,4800.00
7809,4720.00
7810,4800.00
7811,4720.00
7812,4800.00
7813,4800.00
7814,0.00
7815,160.00
7816,80.00
7817,4800.00
7818,4800.00
7819,4800.00
7820,4640.00
7821,4800.00
7822,4720.00
7823,4640.00
7824,4800.00
7825,0.00
7826,80.00
7827,80.00
7828,4720.00
7829,4800.00
7830,4720.00
7831,4720.00
7832,4800.00
7833,4720.00
7834,4800.00
7835,4720.00
7836,4800.00
7837,4720.00
7838,4720.00
7839,4720.00
7840,4720.00
7841,0.00
7842,0.00
7843,4800.00
7844,4800.00
7845,4720.00
7846,4800.00
7847,4800.00
7848,4800.00
7849,4800.00
7850,4720.00
7851,4800.00
7852,4800.00
7853,0.00
7854,80.00
7855,4800.00
7856,4720.00
7857,4800.00
7858,4800.00
7859,4800.00
7860,0.00
7861,0.00
7862,4720.00
7863,4800.00
7864,4800.00
7865,4800.00
7866,4720.00
7867,4800.00
7868,4800.00
7869,4800.00
7870,4800.00
7871,4800.00
7872,4720.00
7873,4800.00
7874,4800.00
7875,4800.00
7876,160.00
7877,0.00
7878,4720.00
7879,4800.00
7880,4880.00
7881,4800.00
7882,4800.00
7883,4720.00
7884,4800.00
7885,4800.00
7886,4720.00
7887,4720.00
7888,4720.00
7889,80.00
7890,80.00
7891,80.00
7892,4720.00
7893,4800.00
7894,4800.00
7895,4800.00
7896,4800.00
7897,4800.00
7898,4800.00
7899,240.00
7900,80.00
7901,0.00
7902,4800.00
7903,4800.00
7904,4720.00
7905,4640.00
7906,4640.00
7907,4800.00
7908,0.00
7909,80.00
7910,80.00
7911,4720.00
7912,4880.00
7913,4800.00
7914,4800.00
7915,4720.00
7916,4640.00
7917,4720.00
7918,4720.00
7919,4720.00
7920,4720.00
7921,4720.00
7922,4800.00
7923,4800.00
7924,4800.00
7925,4800.00
7926,4880.00
7927,4800.00
7928,4720.00
7929,4720.00
7930,4800.00
7931,4800.00
7932,4720.00
7933,4800.00
7934,4640.00
7935,4800.00
7936,4800.00
7937,4800.00
7938,4720.00
7939,4720.00
7940,4640.00
7941,4720.00
7942,4720.00
7943,0.00
7944,0.00
7945,2160.00
7946,4800.00
7947,4800.00
7948,4800.00
7949,4720.00
7950,4800.00
7951,4800.00
7952,4800.00
7953,4800.00
7954,4800.00
7955,4800.00
7956,4800.00
7957,4800.00
7958,4800.00
7959,4800.00
7960,4800.00
7961,4800.00
7962,4800.00
7963,4800.00
7964,4800.00
7965,4800.00
7966,4800.00
7967,4800.00
7968,4720.00
7969,4800.00
7970,4800.00
7971,4800.00
7972,4800.00
7973,4800.00
7974,4800.00
7975,4800.00
7976,4800.00
7977,4800.00
7978,4800.00
7979,4800.00
7980,4800.00
7981,4720.00
7982,4800.00
7983,4800.00
7984,4800.00
7985,4800.00
7986,4720.00
7987,4800.00
7988,4800.00
7989,4880.00
7990,4720.00
7991,4880.00
7992,4800.00
7993,4800.00
7994,4720.00
7995,4800.00
7996,4800.00
7997,4880.00
7998,4800.00
7999,4800.00
